; The collision integrals Q_{i,j}^{11} are exponential fit function obtained from 
; Transport properties of high-temperature Jupiter atmosphere components, D. Bruno, C. Catalfamo, M. Capitelli, G. Colonna, O. De Pascale et al., Phys. Plasmas 17, 112315 (2010), doi: 10.1063/1.3495980, Published by the American Institute of Physics
; 
; 
; To obtain these collision integrals, the original data (transport cross section Q^l_{i,j} or elastic collision differential cross section) are obtained from:
;
; 1) J. Aubreton, M. F. Elchinger, P. Fauchais, V. Rat, and P. Andr√©, J. Phys. D3 7, 2232 2004.
;
; 1 atomic unit of square distance = 2.80e-17 cm^2
; 1eV = 11604K

2.80e-17


;        E             T             Q11
;       (eV)         (K)         (a.u.)

0.0862174       1000       72.9784
0.0948391       1100       70.9699
0.103461       1200       69.1296
0.112083       1300       67.4281
0.120704       1400       65.8426
0.129326       1500       64.3553
0.137948       1600       62.952
0.14657       1700       61.6214
0.155191       1800       60.3542
0.163813       1900       59.1427
0.172435       2000       57.9808
0.181056       2100       56.8633
0.189678       2200       55.7856
0.1983       2300       54.7442
0.206922       2400       53.7358
0.215543       2500       52.7579
0.224165       2600       51.8082
0.232787       2700       50.8847
0.241409       2800       49.9857
0.25003       2900       49.1097
0.258652       3000       48.2556
0.267274       3100       47.422
0.275896       3200       46.6082
0.284517       3300       45.8132
0.293139       3400       45.0362
0.301761       3500       44.2765
0.310383       3600       43.5336
0.319004       3700       42.8068
0.327626       3800       42.0957
0.336248       3900       41.3998
0.34487       4000       40.7186
0.353491       4100       40.0518
0.362113       4200       39.399
0.370735       4300       38.7599
0.379356       4400       38.1341
0.387978       4500       37.5213
0.3966       4600       36.9212
0.405222       4700       36.3336
0.413843       4800       35.7581
0.422465       4900       35.1945
0.431087       5000       34.6426
0.439709       5100       34.1022
0.44833       5200       33.5728
0.456952       5300       33.0545
0.465574       5400       32.5468
0.474196       5500       32.0496
0.482817       5600       31.5628
0.491439       5700       31.0859
0.500061       5800       30.619
0.508683       5900       30.1616
0.517304       6000       29.7137
0.525926       6100       29.2751
0.534548       6200       28.8455
0.543169       6300       28.4248
0.551791       6400       28.0127
0.560413       6500       27.6091
0.569035       6600       27.2139
0.577656       6700       26.8267
0.586278       6800       26.4475
0.5949       6900       26.0761
0.603522       7000       25.7122
0.612143       7100       25.3558
0.620765       7200       25.0067
0.629387       7300       24.6647
0.638009       7400       24.3296
0.64663       7500       24.0013
0.655252       7600       23.6797
0.663874       7700       23.3645
0.672496       7800       23.0557
0.681117       7900       22.7531
0.689739       8000       22.4566
0.698361       8100       22.166
0.706983       8200       21.8812
0.715604       8300       21.602
0.724226       8400       21.3284
0.732848       8500       21.0601
0.741469       8600       20.7972
0.750091       8700       20.5394
0.758713       8800       20.2866
0.767335       8900       20.0388
0.775956       9000       19.7957
0.784578       9100       19.5574
0.7932       9200       19.3237
0.801822       9300       19.0944
0.810443       9400       18.8696
0.819065       9500       18.649
0.827687       9600       18.4326
0.836309       9700       18.2203
0.84493       9800       18.012
0.853552       9900       17.8076
0.862174       10000       17.607
0.870796       10100       17.4101
0.879417       10200       17.2169
0.888039       10300       17.0272
0.896661       10400       16.841
0.905282       10500       16.6583
0.913904       10600       16.4788
0.922526       10700       16.3026
0.931148       10800       16.1296
0.939769       10900       15.9597
0.948391       11000       15.7928
0.957013       11100       15.6289
0.965635       11200       15.4678
0.974256       11300       15.3097
0.982878       11400       15.1543
0.9915       11500       15.0016
1.00012       11600       14.8515
1.00874       11700       14.7041
1.01737       11800       14.5592
1.02599       11900       14.4167
1.03461       12000       14.2767
1.04323       12100       14.1391
1.05185       12200       14.0038
1.06047       12300       13.8708
1.0691       12400       13.74
1.07772       12500       13.6113
1.08634       12600       13.4848
1.09496       12700       13.3604
1.10358       12800       13.238
1.1122       12900       13.1176
1.12083       13000       12.9992
1.12945       13100       12.8827
1.13807       13200       12.768
1.14669       13300       12.6552
1.15531       13400       12.5442
1.16393       13500       12.4349
1.17256       13600       12.3274
1.18118       13700       12.2215
1.1898       13800       12.1173
1.19842       13900       12.0147
1.20704       14000       11.9137
1.21567       14100       11.8143
1.22429       14200       11.7164
1.23291       14300       11.6199
1.24153       14400       11.5249
1.25015       14500       11.4314
1.25877       14600       11.3392
1.2674       14700       11.2485
1.27602       14800       11.159
1.28464       14900       11.0709
1.29326       15000       10.9841
1.30188       15100       10.8986
1.3105       15200       10.8143
1.31913       15300       10.7312
1.32775       15400       10.6493
1.33637       15500       10.5686
1.34499       15600       10.489
1.35361       15700       10.4106
1.36223       15800       10.3333
1.37086       15900       10.257
1.37948       16000       10.1819
1.3881       16100       10.1077
1.39672       16200       10.0346
1.40534       16300       9.96254
1.41397       16400       9.89144
1.42259       16500       9.8213
1.43121       16600       9.75212
1.43983       16700       9.68387
1.44845       16800       9.61653
1.45707       16900       9.5501
1.4657       17000       9.48456
1.47432       17100       9.41988
1.48294       17200       9.35605
1.49156       17300       9.29306
1.50018       17400       9.23089
1.5088       17500       9.16953
1.51743       17600       9.10896
1.52605       17700       9.04917
1.53467       17800       8.99015
1.54329       17900       8.93188
1.55191       18000       8.87435
1.56053       18100       8.81754
1.56916       18200       8.76145
1.57778       18300       8.70606
1.5864       18400       8.65136
1.59502       18500       8.59733
1.60364       18600       8.54398
1.61227       18700       8.49127
1.62089       18800       8.43921
1.62951       18900       8.38778
1.63813       19000       8.33698
1.64675       19100       8.28678
1.65537       19200       8.23719
1.664       19300       8.18819
1.67262       19400       8.13977
1.68124       19500       8.09192
1.68986       19600       8.04463
1.69848       19700       7.9979
1.7071       19800       7.95171
1.71573       19900       7.90606
1.72435       20000       7.86093
1.73297       20100       7.81633
1.74159       20200       7.77223
1.75021       20300       7.72864
1.75883       20400       7.68554
1.76746       20500       7.64293
1.77608       20600       7.60079
1.7847       20700       7.55913
1.79332       20800       7.51793
1.80194       20900       7.47718
1.81056       21000       7.43689
1.81919       21100       7.39704
1.82781       21200       7.35762
1.83643       21300       7.31864
1.84505       21400       7.28007
1.85367       21500       7.24193
1.8623       21600       7.20419
1.87092       21700       7.16685
1.87954       21800       7.12992
1.88816       21900       7.09337
1.89678       22000       7.05721
1.9054       22100       7.02143
1.91403       22200       6.98603
1.92265       22300       6.95099
1.93127       22400       6.91632
1.93989       22500       6.882
1.94851       22600       6.84804
1.95713       22700       6.81443
1.96576       22800       6.78115
1.97438       22900       6.74822
1.983       23000       6.71562
1.99162       23100       6.68335
2.00024       23200       6.6514
2.00886       23300       6.61977
2.01749       23400       6.58845
2.02611       23500       6.55744
2.03473       23600       6.52674
2.04335       23700       6.49634
2.05197       23800       6.46624
2.0606       23900       6.43643
2.06922       24000       6.40691
2.07784       24100       6.37767
2.08646       24200       6.34872
2.09508       24300       6.32004
2.1037       24400       6.29163
2.11233       24500       6.2635
2.12095       24600       6.23563
2.12957       24700       6.20802
2.13819       24800       6.18067
2.14681       24900       6.15358
2.15543       25000       6.12674
2.16406       25100       6.10015
2.17268       25200       6.0738
2.1813       25300       6.0477
2.18992       25400       6.02183
2.19854       25500       5.9962
2.20716       25600       5.9708
2.21579       25700       5.94563
2.22441       25800       5.92069
2.23303       25900       5.89598
2.24165       26000       5.87148
2.25027       26100       5.8472
2.2589       26200       5.82314
2.26752       26300       5.79928
2.27614       26400       5.77564
2.28476       26500       5.75221
2.29338       26600       5.72898
2.302       26700       5.70595
2.31063       26800       5.68312
2.31925       26900       5.66049
2.32787       27000       5.63805
2.33649       27100       5.61581
2.34511       27200       5.59375
2.35373       27300       5.57188
2.36236       27400       5.5502
2.37098       27500       5.5287
2.3796       27600       5.50738
2.38822       27700       5.48624
2.39684       27800       5.46527
2.40546       27900       5.44448
2.41409       28000       5.42386
2.42271       28100       5.40341
2.43133       28200       5.38313
2.43995       28300       5.36301
2.44857       28400       5.34306
2.4572       28500       5.32327
2.46582       28600       5.30364
2.47444       28700       5.28416
2.48306       28800       5.26485
2.49168       28900       5.24569
2.5003       29000       5.22668
2.50893       29100       5.20782
2.51755       29200       5.18911
2.52617       29300       5.17055
2.53479       29400       5.15213
2.54341       29500       5.13386
2.55203       29600       5.11573
2.56066       29700       5.09774
2.56928       29800       5.07989
2.5779       29900       5.06218
2.58652       30000       5.04461
2.59514       30100       5.02717
2.60376       30200       5.00986
2.61239       30300       4.99268
2.62101       30400       4.97564
2.62963       30500       4.95872
2.63825       30600       4.94193
2.64687       30700       4.92526
2.6555       30800       4.90872
2.66412       30900       4.89231
2.67274       31000       4.87601
2.68136       31100       4.85984
2.68998       31200       4.84378
2.6986       31300       4.82784
2.70723       31400       4.81202
2.71585       31500       4.79632
2.72447       31600       4.78072
2.73309       31700       4.76524
2.74171       31800       4.74988
2.75033       31900       4.73462
2.75896       32000       4.71947
2.76758       32100       4.70443
2.7762       32200       4.6895
2.78482       32300       4.67467
2.79344       32400       4.65995
2.80206       32500       4.64533
2.81069       32600       4.63082
2.81931       32700       4.61641
2.82793       32800       4.60209
2.83655       32900       4.58788
2.84517       33000       4.57376
2.8538       33100       4.55975
2.86242       33200       4.54582
2.87104       33300       4.532
2.87966       33400       4.51827
2.88828       33500       4.50463
2.8969       33600       4.49108
2.90553       33700       4.47763
2.91415       33800       4.46427
2.92277       33900       4.45099
2.93139       34000       4.43781
2.94001       34100       4.42471
2.94863       34200       4.4117
2.95726       34300       4.39878
2.96588       34400       4.38594
2.9745       34500       4.37319
2.98312       34600       4.36052
2.99174       34700       4.34794
3.00036       34800       4.33543
3.00899       34900       4.32301
3.01761       35000       4.31067
3.02623       35100       4.29841
3.03485       35200       4.28623
3.04347       35300       4.27412
3.0521       35400       4.2621
3.06072       35500       4.25015
3.06934       35600       4.23827
3.07796       35700       4.22648
3.08658       35800       4.21475
3.0952       35900       4.2031
3.10383       36000       4.19153
3.11245       36100       4.18002
3.12107       36200       4.16859
3.12969       36300       4.15723
3.13831       36400       4.14594
3.14693       36500       4.13472
3.15556       36600       4.12357
3.16418       36700       4.11249
3.1728       36800       4.10147
3.18142       36900       4.09053
3.19004       37000       4.07965
3.19866       37100       4.06883
3.20729       37200       4.05809
3.21591       37300       4.0474
3.22453       37400       4.03678
3.23315       37500       4.02623
3.24177       37600       4.01574
3.2504       37700       4.00531
3.25902       37800       3.99494
3.26764       37900       3.98463
3.27626       38000       3.97439
3.28488       38100       3.96421
3.2935       38200       3.95408
3.30213       38300       3.94402
3.31075       38400       3.93401
3.31937       38500       3.92406
3.32799       38600       3.91417
3.33661       38700       3.90434
3.34523       38800       3.89456
3.35386       38900       3.88485
3.36248       39000       3.87518
3.3711       39100       3.86557
3.37972       39200       3.85602
3.38834       39300       3.84652
3.39696       39400       3.83708
3.40559       39500       3.82769
3.41421       39600       3.81835
3.42283       39700       3.80906
3.43145       39800       3.79983
3.44007       39900       3.79065
3.4487       40000       3.78152
3.45732       40100       3.77244
3.46594       40200       3.76341
3.47456       40300       3.75443
3.48318       40400       3.7455
3.4918       40500       3.73662
3.50043       40600       3.72779
3.50905       40700       3.71901
3.51767       40800       3.71027
3.52629       40900       3.70158
3.53491       41000       3.69294
3.54353       41100       3.68435
3.55216       41200       3.6758
3.56078       41300       3.6673
3.5694       41400       3.65884
3.57802       41500       3.65043
3.58664       41600       3.64207
3.59526       41700       3.63375
3.60389       41800       3.62547
3.61251       41900       3.61724
3.62113       42000       3.60905
3.62975       42100       3.6009
3.63837       42200       3.5928
3.647       42300       3.58474
3.65562       42400       3.57672
3.66424       42500       3.56874
3.67286       42600       3.56081
3.68148       42700       3.55291
3.6901       42800       3.54506
3.69873       42900       3.53725
3.70735       43000       3.52947
3.71597       43100       3.52174
3.72459       43200       3.51405
3.73321       43300       3.50639
3.74183       43400       3.49878
3.75046       43500       3.4912
3.75908       43600       3.48366
3.7677       43700       3.47616
3.77632       43800       3.4687
3.78494       43900       3.46127
3.79356       44000       3.45389
3.80219       44100       3.44654
3.81081       44200       3.43922
3.81943       44300       3.43194
3.82805       44400       3.4247
3.83667       44500       3.4175
3.8453       44600       3.41032
3.85392       44700       3.40319
3.86254       44800       3.39609
3.87116       44900       3.38902
3.87978       45000       3.38199
3.8884       45100       3.375
3.89703       45200       3.36803
3.90565       45300       3.3611
3.91427       45400       3.35421
3.92289       45500       3.34735
3.93151       45600       3.34052
3.94013       45700       3.33372
3.94876       45800       3.32696
3.95738       45900       3.32022
3.966       46000       3.31352
3.97462       46100       3.30686
3.98324       46200       3.30022
3.99186       46300       3.29361
4.00049       46400       3.28704
4.00911       46500       3.2805
4.01773       46600       3.27399
4.02635       46700       3.2675
4.03497       46800       3.26105
4.0436       46900       3.25463
4.05222       47000       3.24824
4.06084       47100       3.24188
4.06946       47200       3.23554
4.07808       47300       3.22924
4.0867       47400       3.22296
4.09533       47500       3.21672
4.10395       47600       3.2105
4.11257       47700       3.20431
4.12119       47800       3.19815
4.12981       47900       3.19202
4.13843       48000       3.18591
4.14706       48100       3.17984
4.15568       48200       3.17379
4.1643       48300       3.16776
4.17292       48400       3.16177
4.18154       48500       3.1558
4.19016       48600       3.14986
4.19879       48700       3.14394
4.20741       48800       3.13805
4.21603       48900       3.13219
4.22465       49000       3.12635
4.23327       49100       3.12054
4.2419       49200       3.11475
4.25052       49300       3.10899
4.25914       49400       3.10326
4.26776       49500       3.09755
4.27638       49600       3.09186
4.285       49700       3.0862
4.29363       49800       3.08056
4.30225       49900       3.07495
4.31087       50000       3.06936
4.31949       50100       3.0638
4.32811       50200       3.05826
4.33673       50300       3.05275
4.34536       50400       3.04725
4.35398       50500       3.04179
4.3626       50600       3.03634
4.37122       50700       3.03092
4.37984       50800       3.02552
4.38846       50900       3.02014
4.39709       51000       3.01479
4.40571       51100       3.00946
4.41433       51200       3.00415
4.42295       51300       2.99886
4.43157       51400       2.9936
4.4402       51500       2.98836
4.44882       51600       2.98314
4.45744       51700       2.97794
4.46606       51800       2.97276
4.47468       51900       2.96761
4.4833       52000       2.96247
4.49193       52100       2.95736
4.50055       52200       2.95227
4.50917       52300       2.94719
4.51779       52400       2.94214
4.52641       52500       2.93711
4.53503       52600       2.9321
4.54366       52700       2.92712
4.55228       52800       2.92215
4.5609       52900       2.9172
4.56952       53000       2.91227
4.57814       53100       2.90736
4.58676       53200       2.90247
4.59539       53300       2.8976
4.60401       53400       2.89275
4.61263       53500       2.88792
4.62125       53600       2.88311
4.62987       53700       2.87832
4.6385       53800       2.87354
4.64712       53900       2.86879
4.65574       54000       2.86405
4.66436       54100       2.85934
4.67298       54200       2.85464
4.6816       54300       2.84996
4.69023       54400       2.8453
4.69885       54500       2.84065
4.70747       54600       2.83603
4.71609       54700       2.83142
4.72471       54800       2.82683
4.73333       54900       2.82226
4.74196       55000       2.81771
4.75058       55100       2.81317
4.7592       55200       2.80865
4.76782       55300       2.80415
4.77644       55400       2.79967
4.78506       55500       2.7952
4.79369       55600       2.79075
4.80231       55700       2.78632
4.81093       55800       2.7819
4.81955       55900       2.7775
4.82817       56000       2.77312
4.8368       56100       2.76875
4.84542       56200       2.7644
4.85404       56300       2.76007
4.86266       56400       2.75575
4.87128       56500       2.75145
4.8799       56600       2.74717
4.88853       56700       2.7429
4.89715       56800       2.73865
4.90577       56900       2.73441
4.91439       57000       2.73019
4.92301       57100       2.72598
4.93163       57200       2.72179
4.94026       57300       2.71762
4.94888       57400       2.71346
4.9575       57500       2.70932
4.96612       57600       2.70519
4.97474       57700       2.70107
4.98336       57800       2.69698
4.99199       57900       2.69289
5.00061       58000       2.68882
5.00923       58100       2.68477
5.01785       58200       2.68073
5.02647       58300       2.6767
5.03509       58400       2.67269
5.04372       58500       2.6687
5.05234       58600       2.66472
5.06096       58700       2.66075
5.06958       58800       2.6568
5.0782       58900       2.65286
5.08683       59000       2.64893
5.09545       59100       2.64502
5.10407       59200       2.64113
5.11269       59300       2.63724
5.12131       59400       2.63337
5.12993       59500       2.62952
5.13856       59600       2.62568
5.14718       59700       2.62185
5.1558       59800       2.61803
5.16442       59900       2.61423
5.17304       60000       2.61044
5.18166       60100       2.60667
5.19029       60200       2.6029
5.19891       60300       2.59916
5.20753       60400       2.59542
5.21615       60500       2.5917
5.22477       60600       2.58799
5.23339       60700       2.58429
5.24202       60800       2.5806
5.25064       60900       2.57693
5.25926       61000       2.57327
5.26788       61100       2.56963
5.2765       61200       2.56599
5.28513       61300       2.56237
5.29375       61400       2.55876
5.30237       61500       2.55516
5.31099       61600       2.55158
5.31961       61700       2.548
5.32823       61800       2.54444
5.33686       61900       2.54089
5.34548       62000       2.53736
5.3541       62100       2.53383
5.36272       62200       2.53032
5.37134       62300       2.52681
5.37996       62400       2.52332
5.38859       62500       2.51985
5.39721       62600       2.51638
5.40583       62700       2.51292
5.41445       62800       2.50948
5.42307       62900       2.50605
5.43169       63000       2.50263
5.44032       63100       2.49922
5.44894       63200       2.49582
5.45756       63300       2.49243
5.46618       63400       2.48905
5.4748       63500       2.48569
5.48343       63600       2.48234
5.49205       63700       2.47899
5.50067       63800       2.47566
5.50929       63900       2.47234
5.51791       64000       2.46903
5.52653       64100       2.46573
5.53516       64200       2.46244
5.54378       64300       2.45916
5.5524       64400       2.45589
5.56102       64500       2.45263
5.56964       64600       2.44938
5.57826       64700       2.44615
5.58689       64800       2.44292
5.59551       64900       2.4397
5.60413       65000       2.4365
5.61275       65100       2.4333
5.62137       65200       2.43012
5.62999       65300       2.42694
5.63862       65400       2.42378
5.64724       65500       2.42062
5.65586       65600       2.41747
5.66448       65700       2.41434
5.6731       65800       2.41121
5.68173       65900       2.4081
5.69035       66000       2.40499
5.69897       66100       2.40189
5.70759       66200       2.39881
5.71621       66300       2.39573
5.72483       66400       2.39266
5.73346       66500       2.3896
5.74208       66600       2.38655
5.7507       66700       2.38351
5.75932       66800       2.38048
5.76794       66900       2.37746
5.77656       67000       2.37445
5.78519       67100       2.37145
5.79381       67200       2.36846
5.80243       67300       2.36547
5.81105       67400       2.3625
5.81967       67500       2.35953
5.82829       67600       2.35658
5.83692       67700       2.35363
5.84554       67800       2.35069
5.85416       67900       2.34776
5.86278       68000       2.34484
5.8714       68100       2.34193
5.88003       68200       2.33902
5.88865       68300       2.33613
5.89727       68400       2.33324
5.90589       68500       2.33037
5.91451       68600       2.3275
5.92313       68700       2.32464
5.93176       68800       2.32178
5.94038       68900       2.31894
5.949       69000       2.31611
5.95762       69100       2.31328
5.96624       69200       2.31046
5.97486       69300       2.30765
5.98349       69400       2.30485
5.99211       69500       2.30206
6.00073       69600       2.29927
6.00935       69700       2.2965
6.01797       69800       2.29373
6.02659       69900       2.29097
6.03522       70000       2.28822
6.04384       70100       2.28547
6.05246       70200       2.28274
6.06108       70300       2.28001
6.0697       70400       2.27729
6.07833       70500       2.27457
6.08695       70600       2.27187
6.09557       70700       2.26917
6.10419       70800       2.26648
6.11281       70900       2.2638
6.12143       71000       2.26113
6.13006       71100       2.25846
6.13868       71200       2.2558
6.1473       71300       2.25315
6.15592       71400       2.25051
6.16454       71500       2.24787
6.17316       71600       2.24525
6.18179       71700       2.24263
6.19041       71800       2.24001
6.19903       71900       2.23741
6.20765       72000       2.23481
6.21627       72100       2.23222
6.22489       72200       2.22963
6.23352       72300       2.22706
6.24214       72400       2.22449
6.25076       72500       2.22192
6.25938       72600       2.21937
6.268       72700       2.21682
6.27663       72800       2.21428
6.28525       72900       2.21175
6.29387       73000       2.20922
6.30249       73100       2.2067
6.31111       73200       2.20419
6.31973       73300       2.20168
6.32836       73400       2.19918
6.33698       73500       2.19669
6.3456       73600       2.19421
6.35422       73700       2.19173
6.36284       73800       2.18926
6.37146       73900       2.18679
6.38009       74000       2.18434
6.38871       74100       2.18189
6.39733       74200       2.17944
6.40595       74300       2.177
6.41457       74400       2.17457
6.42319       74500       2.17215
6.43182       74600       2.16973
6.44044       74700       2.16732
6.44906       74800       2.16491
6.45768       74900       2.16252
6.4663       75000       2.16012
6.47493       75100       2.15774
6.48355       75200       2.15536
6.49217       75300       2.15299
6.50079       75400       2.15062
6.50941       75500       2.14826
6.51803       75600       2.14591
6.52666       75700       2.14356
6.53528       75800       2.14122
6.5439       75900       2.13888
6.55252       76000       2.13656
6.56114       76100       2.13423
6.56976       76200       2.13192
6.57839       76300       2.12961
6.58701       76400       2.1273
6.59563       76500       2.125
6.60425       76600       2.12271
6.61287       76700       2.12043
6.62149       76800       2.11815
6.63012       76900       2.11587
6.63874       77000       2.11361
6.64736       77100       2.11134
6.65598       77200       2.10909
6.6646       77300       2.10684
6.67323       77400       2.10459
6.68185       77500       2.10235
6.69047       77600       2.10012
6.69909       77700       2.09789
6.70771       77800       2.09567
6.71633       77900       2.09346
6.72496       78000       2.09125
6.73358       78100       2.08904
6.7422       78200       2.08684
6.75082       78300       2.08465
6.75944       78400       2.08246
6.76806       78500       2.08028
6.77669       78600       2.07811
6.78531       78700       2.07594
6.79393       78800       2.07377
6.80255       78900       2.07161
6.81117       79000       2.06946
6.81979       79100       2.06731
6.82842       79200       2.06517
6.83704       79300       2.06303
6.84566       79400       2.0609
6.85428       79500       2.05877
6.8629       79600       2.05665
6.87153       79700       2.05453
6.88015       79800       2.05242
6.88877       79900       2.05032
6.89739       80000       2.04822
6.90601       80100       2.04612
6.91463       80200       2.04403
6.92326       80300       2.04195
6.93188       80400       2.03987
6.9405       80500       2.03779
6.94912       80600       2.03572
6.95774       80700       2.03366
6.96636       80800       2.0316
6.97499       80900       2.02955
6.98361       81000       2.0275
6.99223       81100       2.02545
7.00085       81200       2.02342
7.00947       81300       2.02138
7.01809       81400       2.01935
7.02672       81500       2.01733
7.03534       81600       2.01531
7.04396       81700       2.0133
7.05258       81800       2.01129
7.0612       81900       2.00928
7.06983       82000       2.00729
7.07845       82100       2.00529
7.08707       82200       2.0033
7.09569       82300       2.00132
7.10431       82400       1.99934
7.11293       82500       1.99736
7.12156       82600       1.99539
7.13018       82700       1.99343
7.1388       82800       1.99147
7.14742       82900       1.98951
7.15604       83000       1.98756
7.16466       83100       1.98561
7.17329       83200       1.98367
7.18191       83300       1.98173
7.19053       83400       1.9798
7.19915       83500       1.97787
7.20777       83600       1.97595
7.21639       83700       1.97403
7.22502       83800       1.97211
7.23364       83900       1.9702
7.24226       84000       1.9683
7.25088       84100       1.9664
7.2595       84200       1.9645
7.26813       84300       1.96261
7.27675       84400       1.96072
7.28537       84500       1.95884
7.29399       84600       1.95696
7.30261       84700       1.95509
7.31123       84800       1.95322
7.31986       84900       1.95135
7.32848       85000       1.94949
7.3371       85100       1.94763
7.34572       85200       1.94578
7.35434       85300       1.94393
7.36296       85400       1.94209
7.37159       85500       1.94025
7.38021       85600       1.93841
7.38883       85700       1.93658
7.39745       85800       1.93475
7.40607       85900       1.93293
7.41469       86000       1.93111
7.42332       86100       1.9293
7.43194       86200       1.92749
7.44056       86300       1.92568
7.44918       86400       1.92388
7.4578       86500       1.92208
7.46643       86600       1.92029
7.47505       86700       1.9185
7.48367       86800       1.91672
7.49229       86900       1.91493
7.50091       87000       1.91316
7.50953       87100       1.91138
7.51816       87200       1.90961
7.52678       87300       1.90785
7.5354       87400       1.90609
7.54402       87500       1.90433
7.55264       87600       1.90258
7.56126       87700       1.90083
7.56989       87800       1.89908
7.57851       87900       1.89734
7.58713       88000       1.8956
7.59575       88100       1.89387
7.60437       88200       1.89214
7.61299       88300       1.89041
7.62162       88400       1.88869
7.63024       88500       1.88697
7.63886       88600       1.88526
7.64748       88700       1.88355
7.6561       88800       1.88184
7.66473       88900       1.88014
7.67335       89000       1.87844
7.68197       89100       1.87674
7.69059       89200       1.87505
7.69921       89300       1.87336
7.70783       89400       1.87168
7.71646       89500       1.87
7.72508       89600       1.86832
7.7337       89700       1.86665
7.74232       89800       1.86498
7.75094       89900       1.86331
7.75956       90000       1.86165
7.76819       90100       1.85999
7.77681       90200       1.85834
7.78543       90300       1.85668
7.79405       90400       1.85504
7.80267       90500       1.85339
7.81129       90600       1.85175
7.81992       90700       1.85011
7.82854       90800       1.84848
7.83716       90900       1.84685
7.84578       91000       1.84522
7.8544       91100       1.8436
7.86303       91200       1.84198
7.87165       91300       1.84036
7.88027       91400       1.83875
7.88889       91500       1.83714
7.89751       91600       1.83554
7.90613       91700       1.83393
7.91476       91800       1.83234
7.92338       91900       1.83074
7.932       92000       1.82915
7.94062       92100       1.82756
7.94924       92200       1.82597
7.95786       92300       1.82439
7.96649       92400       1.82281
7.97511       92500       1.82124
7.98373       92600       1.81967
7.99235       92700       1.8181
8.00097       92800       1.81653
8.00959       92900       1.81497
8.01822       93000       1.81341
8.02684       93100       1.81186
8.03546       93200       1.8103
8.04408       93300       1.80875
8.0527       93400       1.80721
8.06133       93500       1.80567
8.06995       93600       1.80413
8.07857       93700       1.80259
8.08719       93800       1.80106
8.09581       93900       1.79953
8.10443       94000       1.798
8.11306       94100       1.79648
8.12168       94200       1.79496
8.1303       94300       1.79344
8.13892       94400       1.79193
8.14754       94500       1.79042
8.15616       94600       1.78891
8.16479       94700       1.78741
8.17341       94800       1.7859
8.18203       94900       1.78441
8.19065       95000       1.78291
8.19927       95100       1.78142
8.20789       95200       1.77993
8.21652       95300       1.77844
8.22514       95400       1.77696
8.23376       95500       1.77548
8.24238       95600       1.774
8.251       95700       1.77253
8.25963       95800       1.77106
8.26825       95900       1.76959
8.27687       96000       1.76813
8.28549       96100       1.76666
8.29411       96200       1.76521
8.30273       96300       1.76375
8.31136       96400       1.7623
8.31998       96500       1.76085
8.3286       96600       1.7594
8.33722       96700       1.75795
8.34584       96800       1.75651
8.35446       96900       1.75507
8.36309       97000       1.75364
8.37171       97100       1.75221
8.38033       97200       1.75078
8.38895       97300       1.74935
8.39757       97400       1.74792
8.40619       97500       1.7465
8.41482       97600       1.74508
8.42344       97700       1.74367
8.43206       97800       1.74226
8.44068       97900       1.74085
8.4493       98000       1.73944
8.45792       98100       1.73803
8.46655       98200       1.73663
8.47517       98300       1.73523
8.48379       98400       1.73384
8.49241       98500       1.73244
8.50103       98600       1.73105
8.50966       98700       1.72967
8.51828       98800       1.72828
8.5269       98900       1.7269
8.53552       99000       1.72552
8.54414       99100       1.72414
8.55276       99200       1.72277
8.56139       99300       1.72139
8.57001       99400       1.72002
8.57863       99500       1.71866
8.58725       99600       1.71729
8.59587       99700       1.71593
8.60449       99800       1.71458
8.61312       99900       1.71322
8.62174       100000       1.71187
8.63036       100100       1.71052
8.63898       100200       1.70917
8.6476       100300       1.70782
8.65622       100400       1.70648
8.66485       100500       1.70514
8.67347       100600       1.7038
8.68209       100700       1.70247
8.69071       100800       1.70113
8.69933       100900       1.6998
8.70796       101000       1.69848
8.71658       101100       1.69715
8.7252       101200       1.69583
8.73382       101300       1.69451
8.74244       101400       1.69319
8.75106       101500       1.69188
8.75969       101600       1.69057
8.76831       101700       1.68926
8.77693       101800       1.68795
8.78555       101900       1.68664
8.79417       102000       1.68534
8.80279       102100       1.68404
8.81142       102200       1.68274
8.82004       102300       1.68145
8.82866       102400       1.68016
8.83728       102500       1.67887
8.8459       102600       1.67758
8.85452       102700       1.67629
8.86315       102800       1.67501
8.87177       102900       1.67373
8.88039       103000       1.67245
8.88901       103100       1.67118
8.89763       103200       1.6699
8.90626       103300       1.66863
8.91488       103400       1.66737
8.9235       103500       1.6661
8.93212       103600       1.66484
8.94074       103700       1.66357
8.94936       103800       1.66231
8.95799       103900       1.66106
8.96661       104000       1.6598
8.97523       104100       1.65855
8.98385       104200       1.6573
8.99247       104300       1.65605
9.00109       104400       1.65481
9.00972       104500       1.65357
9.01834       104600       1.65233
9.02696       104700       1.65109
9.03558       104800       1.64985
9.0442       104900       1.64862
9.05282       105000       1.64739
9.06145       105100       1.64616
9.07007       105200       1.64493
9.07869       105300       1.64371
9.08731       105400       1.64248
9.09593       105500       1.64126
9.10456       105600       1.64004
9.11318       105700       1.63883
9.1218       105800       1.63762
9.13042       105900       1.6364
9.13904       106000       1.63519
9.14766       106100       1.63399
9.15629       106200       1.63278
9.16491       106300       1.63158
9.17353       106400       1.63038
9.18215       106500       1.62918
9.19077       106600       1.62799
9.19939       106700       1.62679
9.20802       106800       1.6256
9.21664       106900       1.62441
9.22526       107000       1.62322
9.23388       107100       1.62204
9.2425       107200       1.62085
9.25112       107300       1.61967
9.25975       107400       1.61849
9.26837       107500       1.61732
9.27699       107600       1.61614
9.28561       107700       1.61497
9.29423       107800       1.6138
9.30286       107900       1.61263
9.31148       108000       1.61146
9.3201       108100       1.6103
9.32872       108200       1.60914
9.33734       108300       1.60797
9.34596       108400       1.60682
9.35459       108500       1.60566
9.36321       108600       1.60451
9.37183       108700       1.60335
9.38045       108800       1.6022
9.38907       108900       1.60106
9.39769       109000       1.59991
9.40632       109100       1.59877
9.41494       109200       1.59762
9.42356       109300       1.59648
9.43218       109400       1.59534
9.4408       109500       1.59421
9.44942       109600       1.59307
9.45805       109700       1.59194
9.46667       109800       1.59081
9.47529       109900       1.58968
9.48391       110000       1.58856
9.49253       110100       1.58743
9.50116       110200       1.58631
9.50978       110300       1.58519
9.5184       110400       1.58407
9.52702       110500       1.58296
9.53564       110600       1.58184
9.54426       110700       1.58073
9.55289       110800       1.57962
9.56151       110900       1.57851
9.57013       111000       1.5774
9.57875       111100       1.5763
9.58737       111200       1.57519
9.59599       111300       1.57409
9.60462       111400       1.57299
9.61324       111500       1.5719
9.62186       111600       1.5708
9.63048       111700       1.56971
9.6391       111800       1.56861
9.64772       111900       1.56752
9.65635       112000       1.56644
9.66497       112100       1.56535
9.67359       112200       1.56427
9.68221       112300       1.56318
9.69083       112400       1.5621
9.69946       112500       1.56102
9.70808       112600       1.55995
9.7167       112700       1.55887
9.72532       112800       1.5578
9.73394       112900       1.55673
9.74256       113000       1.55566
9.75119       113100       1.55459
9.75981       113200       1.55352
9.76843       113300       1.55246
9.77705       113400       1.55139
9.78567       113500       1.55033
9.79429       113600       1.54927
9.80292       113700       1.54822
9.81154       113800       1.54716
9.82016       113900       1.54611
9.82878       114000       1.54506
9.8374       114100       1.54401
9.84602       114200       1.54296
9.85465       114300       1.54191
9.86327       114400       1.54087
9.87189       114500       1.53982
9.88051       114600       1.53878
9.88913       114700       1.53774
9.89776       114800       1.5367
9.90638       114900       1.53567
9.915       115000       1.53463
9.92362       115100       1.5336
9.93224       115200       1.53257
9.94086       115300       1.53154
9.94949       115400       1.53051
9.95811       115500       1.52948
9.96673       115600       1.52846
9.97535       115700       1.52744
9.98397       115800       1.52642
9.99259       115900       1.5254
10.0012       116000       1.52438
10.0098       116100       1.52336
10.0185       116200       1.52235
10.0271       116300       1.52133
10.0357       116400       1.52032
10.0443       116500       1.51931
10.0529       116600       1.51831
10.0616       116700       1.5173
10.0702       116800       1.5163
10.0788       116900       1.51529
10.0874       117000       1.51429
10.0961       117100       1.51329
10.1047       117200       1.51229
10.1133       117300       1.5113
10.1219       117400       1.5103
10.1305       117500       1.50931
10.1392       117600       1.50832
10.1478       117700       1.50733
10.1564       117800       1.50634
10.165       117900       1.50535
10.1737       118000       1.50437
10.1823       118100       1.50338
10.1909       118200       1.5024
10.1995       118300       1.50142
10.2081       118400       1.50044
10.2168       118500       1.49946
10.2254       118600       1.49849
10.234       118700       1.49751
10.2426       118800       1.49654
10.2512       118900       1.49557
10.2599       119000       1.4946
10.2685       119100       1.49363
10.2771       119200       1.49267
10.2857       119300       1.4917
10.2944       119400       1.49074
10.303       119500       1.48977
10.3116       119600       1.48881
10.3202       119700       1.48786
10.3288       119800       1.4869
10.3375       119900       1.48594
10.3461       120000       1.48499
10.3547       120100       1.48403
10.3633       120200       1.48308
10.372       120300       1.48213
10.3806       120400       1.48119
10.3892       120500       1.48024
10.3978       120600       1.47929
10.4064       120700       1.47835
10.4151       120800       1.47741
10.4237       120900       1.47647
10.4323       121000       1.47553
10.4409       121100       1.47459
10.4495       121200       1.47365
10.4582       121300       1.47272
10.4668       121400       1.47178
10.4754       121500       1.47085
10.484       121600       1.46992
10.4927       121700       1.46899
10.5013       121800       1.46806
10.5099       121900       1.46714
10.5185       122000       1.46621
10.5271       122100       1.46529
10.5358       122200       1.46437
10.5444       122300       1.46344
10.553       122400       1.46253
10.5616       122500       1.46161
10.5703       122600       1.46069
10.5789       122700       1.45978
10.5875       122800       1.45886
10.5961       122900       1.45795
10.6047       123000       1.45704
10.6134       123100       1.45613
10.622       123200       1.45522
10.6306       123300       1.45431
10.6392       123400       1.45341
10.6478       123500       1.45251
10.6565       123600       1.4516
10.6651       123700       1.4507
10.6737       123800       1.4498
10.6823       123900       1.4489
10.691       124000       1.44801
10.6996       124100       1.44711
10.7082       124200       1.44622
10.7168       124300       1.44532
10.7254       124400       1.44443
10.7341       124500       1.44354
10.7427       124600       1.44265
10.7513       124700       1.44176
10.7599       124800       1.44088
10.7686       124900       1.43999
10.7772       125000       1.43911
10.7858       125100       1.43823
10.7944       125200       1.43735
10.803       125300       1.43647
10.8117       125400       1.43559
10.8203       125500       1.43471
10.8289       125600       1.43384
10.8375       125700       1.43296
10.8461       125800       1.43209
10.8548       125900       1.43122
10.8634       126000       1.43035
10.872       126100       1.42948
10.8806       126200       1.42861
10.8893       126300       1.42774
10.8979       126400       1.42688
10.9065       126500       1.42601
10.9151       126600       1.42515
10.9237       126700       1.42429
10.9324       126800       1.42343
10.941       126900       1.42257
10.9496       127000       1.42171
10.9582       127100       1.42086
10.9669       127200       1.42
10.9755       127300       1.41915
10.9841       127400       1.4183
10.9927       127500       1.41744
11.0013       127600       1.41659
11.01       127700       1.41575
11.0186       127800       1.4149
11.0272       127900       1.41405
11.0358       128000       1.41321
11.0444       128100       1.41236
11.0531       128200       1.41152
11.0617       128300       1.41068
11.0703       128400       1.40984
11.0789       128500       1.409
11.0876       128600       1.40816
11.0962       128700       1.40733
11.1048       128800       1.40649
11.1134       128900       1.40566
11.122       129000       1.40482
11.1307       129100       1.40399
11.1393       129200       1.40316
11.1479       129300       1.40233
11.1565       129400       1.4015
11.1652       129500       1.40068
11.1738       129600       1.39985
11.1824       129700       1.39903
11.191       129800       1.39821
11.1996       129900       1.39738
11.2083       130000       1.39656
11.2169       130100       1.39574
11.2255       130200       1.39492
11.2341       130300       1.39411
11.2427       130400       1.39329
11.2514       130500       1.39248
11.26       130600       1.39166
11.2686       130700       1.39085
11.2772       130800       1.39004
11.2859       130900       1.38923
11.2945       131000       1.38842
11.3031       131100       1.38761
11.3117       131200       1.3868
11.3203       131300       1.386
11.329       131400       1.38519
11.3376       131500       1.38439
11.3462       131600       1.38359
11.3548       131700       1.38279
11.3635       131800       1.38199
11.3721       131900       1.38119
11.3807       132000       1.38039
11.3893       132100       1.37959
11.3979       132200       1.3788
11.4066       132300       1.378
11.4152       132400       1.37721
11.4238       132500       1.37642
11.4324       132600       1.37563
11.441       132700       1.37484
11.4497       132800       1.37405
11.4583       132900       1.37326
11.4669       133000       1.37248
11.4755       133100       1.37169
11.4842       133200       1.37091
11.4928       133300       1.37012
11.5014       133400       1.36934
11.51       133500       1.36856
11.5186       133600       1.36778
11.5273       133700       1.367
11.5359       133800       1.36622
11.5445       133900       1.36545
11.5531       134000       1.36467
11.5618       134100       1.3639
11.5704       134200       1.36312
11.579       134300       1.36235
11.5876       134400       1.36158
11.5962       134500       1.36081
11.6049       134600       1.36004
11.6135       134700       1.35927
11.6221       134800       1.35851
11.6307       134900       1.35774
11.6393       135000       1.35698
11.648       135100       1.35621
11.6566       135200       1.35545
11.6652       135300       1.35469
11.6738       135400       1.35393
11.6825       135500       1.35317
11.6911       135600       1.35241
11.6997       135700       1.35165
11.7083       135800       1.35089
11.7169       135900       1.35014
11.7256       136000       1.34938
11.7342       136100       1.34863
11.7428       136200       1.34788
11.7514       136300       1.34713
11.7601       136400       1.34638
11.7687       136500       1.34563
11.7773       136600       1.34488
11.7859       136700       1.34413
11.7945       136800       1.34339
11.8032       136900       1.34264
11.8118       137000       1.3419
11.8204       137100       1.34115
11.829       137200       1.34041
11.8376       137300       1.33967
11.8463       137400       1.33893
11.8549       137500       1.33819
11.8635       137600       1.33745
11.8721       137700       1.33672
11.8808       137800       1.33598
11.8894       137900       1.33525
11.898       138000       1.33451
11.9066       138100       1.33378
11.9152       138200       1.33305
11.9239       138300       1.33231
11.9325       138400       1.33158
11.9411       138500       1.33086
11.9497       138600       1.33013
11.9584       138700       1.3294
11.967       138800       1.32867
11.9756       138900       1.32795
11.9842       139000       1.32722
11.9928       139100       1.3265
12.0015       139200       1.32578
12.0101       139300       1.32506
12.0187       139400       1.32434
12.0273       139500       1.32362
12.0359       139600       1.3229
12.0446       139700       1.32218
12.0532       139800       1.32146
12.0618       139900       1.32075
12.0704       140000       1.32003
12.0791       140100       1.31932
12.0877       140200       1.31861
12.0963       140300       1.3179
12.1049       140400       1.31718
12.1135       140500       1.31647
12.1222       140600       1.31577
12.1308       140700       1.31506
12.1394       140800       1.31435
12.148       140900       1.31364
12.1567       141000       1.31294
12.1653       141100       1.31223
12.1739       141200       1.31153
12.1825       141300       1.31083
12.1911       141400       1.31013
12.1998       141500       1.30943
12.2084       141600       1.30873
12.217       141700       1.30803
12.2256       141800       1.30733
12.2342       141900       1.30663
12.2429       142000       1.30594
12.2515       142100       1.30524
12.2601       142200       1.30455
12.2687       142300       1.30385
12.2774       142400       1.30316
12.286       142500       1.30247
12.2946       142600       1.30178
12.3032       142700       1.30109
12.3118       142800       1.3004
12.3205       142900       1.29971
12.3291       143000       1.29902
12.3377       143100       1.29834
12.3463       143200       1.29765
12.355       143300       1.29697
12.3636       143400       1.29628
12.3722       143500       1.2956
12.3808       143600       1.29492
12.3894       143700       1.29424
12.3981       143800       1.29356
12.4067       143900       1.29288
12.4153       144000       1.2922
12.4239       144100       1.29152
12.4325       144200       1.29085
12.4412       144300       1.29017
12.4498       144400       1.2895
12.4584       144500       1.28882
12.467       144600       1.28815
12.4757       144700       1.28748
12.4843       144800       1.28681
12.4929       144900       1.28614
12.5015       145000       1.28547
12.5101       145100       1.2848
12.5188       145200       1.28413
12.5274       145300       1.28346
12.536       145400       1.2828
12.5446       145500       1.28213
12.5533       145600       1.28147
12.5619       145700       1.2808
12.5705       145800       1.28014
12.5791       145900       1.27948
12.5877       146000       1.27882
12.5964       146100       1.27816
12.605       146200       1.2775
12.6136       146300       1.27684
12.6222       146400       1.27618
12.6308       146500       1.27552
12.6395       146600       1.27487
12.6481       146700       1.27421
12.6567       146800       1.27356
12.6653       146900       1.2729
12.674       147000       1.27225
12.6826       147100       1.2716
12.6912       147200       1.27095
12.6998       147300       1.2703
12.7084       147400       1.26965
12.7171       147500       1.269
12.7257       147600       1.26835
12.7343       147700       1.2677
12.7429       147800       1.26706
12.7516       147900       1.26641
12.7602       148000       1.26577
12.7688       148100       1.26512
12.7774       148200       1.26448
12.786       148300       1.26384
12.7947       148400       1.2632
12.8033       148500       1.26255
12.8119       148600       1.26191
12.8205       148700       1.26128
12.8291       148800       1.26064
12.8378       148900       1.26
12.8464       149000       1.25936
12.855       149100       1.25873
12.8636       149200       1.25809
12.8723       149300       1.25746
12.8809       149400       1.25682
12.8895       149500       1.25619
12.8981       149600       1.25556
12.9067       149700       1.25493
12.9154       149800       1.2543
12.924       149900       1.25367
12.9326       150000       1.25304
12.9412       150100       1.25241
12.9499       150200       1.25178
12.9585       150300       1.25116
12.9671       150400       1.25053
12.9757       150500       1.24991
12.9843       150600       1.24928
12.993       150700       1.24866
13.0016       150800       1.24803
13.0102       150900       1.24741
13.0188       151000       1.24679
13.0274       151100       1.24617
13.0361       151200       1.24555
13.0447       151300       1.24493
13.0533       151400       1.24431
13.0619       151500       1.2437
13.0706       151600       1.24308
13.0792       151700       1.24246
13.0878       151800       1.24185
13.0964       151900       1.24123
13.105       152000       1.24062
13.1137       152100       1.24001
13.1223       152200       1.23939
13.1309       152300       1.23878
13.1395       152400       1.23817
13.1482       152500       1.23756
13.1568       152600       1.23695
13.1654       152700       1.23634
13.174       152800       1.23574
13.1826       152900       1.23513
13.1913       153000       1.23452
13.1999       153100       1.23392
13.2085       153200       1.23331
13.2171       153300       1.23271
13.2257       153400       1.2321
13.2344       153500       1.2315
13.243       153600       1.2309
13.2516       153700       1.2303
13.2602       153800       1.2297
13.2689       153900       1.2291
13.2775       154000       1.2285
13.2861       154100       1.2279
13.2947       154200       1.2273
13.3033       154300       1.22671
13.312       154400       1.22611
13.3206       154500       1.22551
13.3292       154600       1.22492
13.3378       154700       1.22433
13.3465       154800       1.22373
13.3551       154900       1.22314
13.3637       155000       1.22255
13.3723       155100       1.22196
13.3809       155200       1.22136
13.3896       155300       1.22077
13.3982       155400       1.22019
13.4068       155500       1.2196
13.4154       155600       1.21901
13.424       155700       1.21842
13.4327       155800       1.21784
13.4413       155900       1.21725
13.4499       156000       1.21666
13.4585       156100       1.21608
13.4672       156200       1.2155
13.4758       156300       1.21491
13.4844       156400       1.21433
13.493       156500       1.21375
13.5016       156600       1.21317
13.5103       156700       1.21259
13.5189       156800       1.21201
13.5275       156900       1.21143
13.5361       157000       1.21085
13.5448       157100       1.21027
13.5534       157200       1.2097
13.562       157300       1.20912
13.5706       157400       1.20855
13.5792       157500       1.20797
13.5879       157600       1.2074
13.5965       157700       1.20682
13.6051       157800       1.20625
13.6137       157900       1.20568
13.6223       158000       1.20511
13.631       158100       1.20454
13.6396       158200       1.20396
13.6482       158300       1.2034
13.6568       158400       1.20283
13.6655       158500       1.20226
13.6741       158600       1.20169
13.6827       158700       1.20112
13.6913       158800       1.20056
13.6999       158900       1.19999
13.7086       159000       1.19943
13.7172       159100       1.19886
13.7258       159200       1.1983
13.7344       159300       1.19774
13.7431       159400       1.19717
13.7517       159500       1.19661
13.7603       159600       1.19605
13.7689       159700       1.19549
13.7775       159800       1.19493
13.7862       159900       1.19437
13.7948       160000       1.19381
13.8034       160100       1.19326
13.812       160200       1.1927
13.8206       160300       1.19214
13.8293       160400       1.19159
13.8379       160500       1.19103
13.8465       160600       1.19048
13.8551       160700       1.18992
13.8638       160800       1.18937
13.8724       160900       1.18882
13.881       161000       1.18826
13.8896       161100       1.18771
13.8982       161200       1.18716
13.9069       161300       1.18661
13.9155       161400       1.18606
13.9241       161500       1.18551
13.9327       161600       1.18496
13.9414       161700       1.18442
13.95       161800       1.18387
13.9586       161900       1.18332
13.9672       162000       1.18278
13.9758       162100       1.18223
13.9845       162200       1.18169
13.9931       162300       1.18114
14.0017       162400       1.1806
14.0103       162500       1.18006
14.0189       162600       1.17951
14.0276       162700       1.17897
14.0362       162800       1.17843
14.0448       162900       1.17789
14.0534       163000       1.17735
14.0621       163100       1.17681
14.0707       163200       1.17627
14.0793       163300       1.17573
14.0879       163400       1.1752
14.0965       163500       1.17466
14.1052       163600       1.17412
14.1138       163700       1.17359
14.1224       163800       1.17305
14.131       163900       1.17252
14.1397       164000       1.17199
14.1483       164100       1.17145
14.1569       164200       1.17092
14.1655       164300       1.17039
14.1741       164400       1.16986
14.1828       164500       1.16933
14.1914       164600       1.1688
14.2       164700       1.16827
14.2086       164800       1.16774
14.2172       164900       1.16721
14.2259       165000       1.16668
14.2345       165100       1.16615
14.2431       165200       1.16563
14.2517       165300       1.1651
14.2604       165400       1.16457
14.269       165500       1.16405
14.2776       165600       1.16353
14.2862       165700       1.163
14.2948       165800       1.16248
14.3035       165900       1.16196
14.3121       166000       1.16143
14.3207       166100       1.16091
14.3293       166200       1.16039
14.338       166300       1.15987
14.3466       166400       1.15935
14.3552       166500       1.15883
14.3638       166600       1.15831
14.3724       166700       1.1578
14.3811       166800       1.15728
14.3897       166900       1.15676
14.3983       167000       1.15624
14.4069       167100       1.15573
14.4155       167200       1.15521
14.4242       167300       1.1547
14.4328       167400       1.15418
14.4414       167500       1.15367
14.45       167600       1.15316
14.4587       167700       1.15265
14.4673       167800       1.15213
14.4759       167900       1.15162
14.4845       168000       1.15111
14.4931       168100       1.1506
14.5018       168200       1.15009
14.5104       168300       1.14958
14.519       168400       1.14907
14.5276       168500       1.14857
14.5363       168600       1.14806
14.5449       168700       1.14755
14.5535       168800       1.14705
14.5621       168900       1.14654
14.5707       169000       1.14603
14.5794       169100       1.14553
14.588       169200       1.14503
14.5966       169300       1.14452
14.6052       169400       1.14402
14.6138       169500       1.14352
14.6225       169600       1.14301
14.6311       169700       1.14251
14.6397       169800       1.14201
14.6483       169900       1.14151
14.657       170000       1.14101
14.6656       170100       1.14051
14.6742       170200       1.14001
14.6828       170300       1.13952
14.6914       170400       1.13902
14.7001       170500       1.13852
14.7087       170600       1.13802
14.7173       170700       1.13753
14.7259       170800       1.13703
14.7346       170900       1.13654
14.7432       171000       1.13604
14.7518       171100       1.13555
14.7604       171200       1.13505
14.769       171300       1.13456
14.7777       171400       1.13407
14.7863       171500       1.13358
14.7949       171600       1.13309
14.8035       171700       1.1326
14.8121       171800       1.1321
14.8208       171900       1.13162
14.8294       172000       1.13113
14.838       172100       1.13064
14.8466       172200       1.13015
14.8553       172300       1.12966
14.8639       172400       1.12917
14.8725       172500       1.12869
14.8811       172600       1.1282
14.8897       172700       1.12772
14.8984       172800       1.12723
14.907       172900       1.12675
14.9156       173000       1.12626
14.9242       173100       1.12578
14.9329       173200       1.12529
14.9415       173300       1.12481
14.9501       173400       1.12433
14.9587       173500       1.12385
14.9673       173600       1.12337
14.976       173700       1.12289
14.9846       173800       1.12241
14.9932       173900       1.12193
15.0018       174000       1.12145
15.0104       174100       1.12097
15.0191       174200       1.12049
15.0277       174300       1.12001
15.0363       174400       1.11954
15.0449       174500       1.11906
15.0536       174600       1.11858
15.0622       174700       1.11811
15.0708       174800       1.11763
15.0794       174900       1.11716
15.088       175000       1.11668
15.0967       175100       1.11621
15.1053       175200       1.11574
15.1139       175300       1.11526
15.1225       175400       1.11479
15.1312       175500       1.11432
15.1398       175600       1.11385
15.1484       175700       1.11338
15.157       175800       1.11291
15.1656       175900       1.11244
15.1743       176000       1.11197
15.1829       176100       1.1115
15.1915       176200       1.11103
15.2001       176300       1.11056
15.2087       176400       1.1101
15.2174       176500       1.10963
15.226       176600       1.10916
15.2346       176700       1.1087
15.2432       176800       1.10823
15.2519       176900       1.10777
15.2605       177000       1.1073
15.2691       177100       1.10684
15.2777       177200       1.10638
15.2863       177300       1.10591
15.295       177400       1.10545
15.3036       177500       1.10499
15.3122       177600       1.10453
15.3208       177700       1.10407
15.3295       177800       1.10361
15.3381       177900       1.10315
15.3467       178000       1.10269
15.3553       178100       1.10223
15.3639       178200       1.10177
15.3726       178300       1.10131
15.3812       178400       1.10085
15.3898       178500       1.10039
15.3984       178600       1.09994
15.407       178700       1.09948
15.4157       178800       1.09902
15.4243       178900       1.09857
15.4329       179000       1.09811
15.4415       179100       1.09766
15.4502       179200       1.09721
15.4588       179300       1.09675
15.4674       179400       1.0963
15.476       179500       1.09585
15.4846       179600       1.09539
15.4933       179700       1.09494
15.5019       179800       1.09449
15.5105       179900       1.09404
15.5191       180000       1.09359
15.5278       180100       1.09314
15.5364       180200       1.09269
15.545       180300       1.09224
15.5536       180400       1.09179
15.5622       180500       1.09134
15.5709       180600       1.0909
15.5795       180700       1.09045
15.5881       180800       1.09
15.5967       180900       1.08956
15.6053       181000       1.08911
15.614       181100       1.08866
15.6226       181200       1.08822
15.6312       181300       1.08777
15.6398       181400       1.08733
15.6485       181500       1.08689
15.6571       181600       1.08644
15.6657       181700       1.086
15.6743       181800       1.08556
15.6829       181900       1.08512
15.6916       182000       1.08467
15.7002       182100       1.08423
15.7088       182200       1.08379
15.7174       182300       1.08335
15.7261       182400       1.08291
15.7347       182500       1.08247
15.7433       182600       1.08203
15.7519       182700       1.0816
15.7605       182800       1.08116
15.7692       182900       1.08072
15.7778       183000       1.08028
15.7864       183100       1.07985
15.795       183200       1.07941
15.8036       183300       1.07897
15.8123       183400       1.07854
15.8209       183500       1.0781
15.8295       183600       1.07767
15.8381       183700       1.07724
15.8468       183800       1.0768
15.8554       183900       1.07637
15.864       184000       1.07594
15.8726       184100       1.0755
15.8812       184200       1.07507
15.8899       184300       1.07464
15.8985       184400       1.07421
15.9071       184500       1.07378
15.9157       184600       1.07335
15.9244       184700       1.07292
15.933       184800       1.07249
15.9416       184900       1.07206
15.9502       185000       1.07163
15.9588       185100       1.0712
15.9675       185200       1.07077
15.9761       185300       1.07035
15.9847       185400       1.06992
15.9933       185500       1.06949
16.0019       185600       1.06907
16.0106       185700       1.06864
16.0192       185800       1.06822
16.0278       185900       1.06779
16.0364       186000       1.06737
16.0451       186100       1.06694
16.0537       186200       1.06652
16.0623       186300       1.0661
16.0709       186400       1.06567
16.0795       186500       1.06525
16.0882       186600       1.06483
16.0968       186700       1.06441
16.1054       186800       1.06399
16.114       186900       1.06357
16.1227       187000       1.06315
16.1313       187100       1.06273
16.1399       187200       1.06231
16.1485       187300       1.06189
16.1571       187400       1.06147
16.1658       187500       1.06105
16.1744       187600       1.06063
16.183       187700       1.06021
16.1916       187800       1.0598
16.2002       187900       1.05938
16.2089       188000       1.05896
16.2175       188100       1.05855
16.2261       188200       1.05813
16.2347       188300       1.05772
16.2434       188400       1.0573
16.252       188500       1.05689
16.2606       188600       1.05647
16.2692       188700       1.05606
16.2778       188800       1.05565
16.2865       188900       1.05524
16.2951       189000       1.05482
16.3037       189100       1.05441
16.3123       189200       1.054
16.321       189300       1.05359
16.3296       189400       1.05318
16.3382       189500       1.05277
16.3468       189600       1.05236
16.3554       189700       1.05195
16.3641       189800       1.05154
16.3727       189900       1.05113
16.3813       190000       1.05072
16.3899       190100       1.05031
16.3985       190200       1.04991
16.4072       190300       1.0495
16.4158       190400       1.04909
16.4244       190500       1.04869
16.433       190600       1.04828
16.4417       190700       1.04787
16.4503       190800       1.04747
16.4589       190900       1.04706
16.4675       191000       1.04666
16.4761       191100       1.04625
16.4848       191200       1.04585
16.4934       191300       1.04545
16.502       191400       1.04504
16.5106       191500       1.04464
16.5193       191600       1.04424
16.5279       191700       1.04384
16.5365       191800       1.04344
16.5451       191900       1.04303
16.5537       192000       1.04263
16.5624       192100       1.04223
16.571       192200       1.04183
16.5796       192300       1.04143
16.5882       192400       1.04103
16.5968       192500       1.04064
16.6055       192600       1.04024
16.6141       192700       1.03984
16.6227       192800       1.03944
16.6313       192900       1.03904
16.64       193000       1.03865
16.6486       193100       1.03825
16.6572       193200       1.03785
16.6658       193300       1.03746
16.6744       193400       1.03706
16.6831       193500       1.03667
16.6917       193600       1.03627
16.7003       193700       1.03588
16.7089       193800       1.03548
16.7175       193900       1.03509
16.7262       194000       1.0347
16.7348       194100       1.0343
16.7434       194200       1.03391
16.752       194300       1.03352
16.7607       194400       1.03313
16.7693       194500       1.03274
16.7779       194600       1.03234
16.7865       194700       1.03195
16.7951       194800       1.03156
16.8038       194900       1.03117
16.8124       195000       1.03078
16.821       195100       1.03039
16.8296       195200       1.03001
16.8383       195300       1.02962
16.8469       195400       1.02923
16.8555       195500       1.02884
16.8641       195600       1.02845
16.8727       195700       1.02807
16.8814       195800       1.02768
16.89       195900       1.02729
16.8986       196000       1.02691
16.9072       196100       1.02652
16.9158       196200       1.02614
16.9245       196300       1.02575
16.9331       196400       1.02537
16.9417       196500       1.02498
16.9503       196600       1.0246
16.959       196700       1.02421
16.9676       196800       1.02383
16.9762       196900       1.02345
16.9848       197000       1.02306
16.9934       197100       1.02268
17.0021       197200       1.0223
17.0107       197300       1.02192
17.0193       197400       1.02154
17.0279       197500       1.02116
17.0366       197600       1.02078
17.0452       197700       1.0204
17.0538       197800       1.02002
17.0624       197900       1.01964
17.071       198000       1.01926
17.0797       198100       1.01888
17.0883       198200       1.0185
17.0969       198300       1.01812
17.1055       198400       1.01775
17.1141       198500       1.01737
17.1228       198600       1.01699
17.1314       198700       1.01661
17.14       198800       1.01624
17.1486       198900       1.01586
17.1573       199000       1.01549
17.1659       199100       1.01511
17.1745       199200       1.01474
17.1831       199300       1.01436
17.1917       199400       1.01399
17.2004       199500       1.01361
17.209       199600       1.01324
17.2176       199700       1.01287
17.2262       199800       1.01249
17.2349       199900       1.01212
17.2435       200000       1.01175
17.2521       200100       1.01138
17.2607       200200       1.011
17.2693       200300       1.01063
17.278       200400       1.01026
17.2866       200500       1.00989
17.2952       200600       1.00952
17.3038       200700       1.00915
17.3124       200800       1.00878
17.3211       200900       1.00841
17.3297       201000       1.00804
17.3383       201100       1.00767
17.3469       201200       1.00731
17.3556       201300       1.00694
17.3642       201400       1.00657
17.3728       201500       1.0062
17.3814       201600       1.00584
17.39       201700       1.00547
17.3987       201800       1.0051
17.4073       201900       1.00474
17.4159       202000       1.00437
17.4245       202100       1.00401
17.4332       202200       1.00364
17.4418       202300       1.00328
17.4504       202400       1.00291
17.459       202500       1.00255
17.4676       202600       1.00218
17.4763       202700       1.00182
17.4849       202800       1.00146
17.4935       202900       1.00109
17.5021       203000       1.00073
17.5107       203100       1.00037
17.5194       203200       1.00001
17.528       203300       0.999646
17.5366       203400       0.999285
17.5452       203500       0.998924
17.5539       203600       0.998564
17.5625       203700       0.998204
17.5711       203800       0.997844
17.5797       203900       0.997484
17.5883       204000       0.997125
17.597       204100       0.996766
17.6056       204200       0.996407
17.6142       204300       0.996049
17.6228       204400       0.995691
17.6315       204500       0.995333
17.6401       204600       0.994976
17.6487       204700       0.994619
17.6573       204800       0.994262
17.6659       204900       0.993906
17.6746       205000       0.993549
17.6832       205100       0.993194
17.6918       205200       0.992838
17.7004       205300       0.992483
17.709       205400       0.992128
17.7177       205500       0.991773
17.7263       205600       0.991419
17.7349       205700       0.991065
17.7435       205800       0.990712
17.7522       205900       0.990358
17.7608       206000       0.990005
17.7694       206100       0.989653
17.778       206200       0.9893
17.7866       206300       0.988948
17.7953       206400       0.988596
17.8039       206500       0.988245
17.8125       206600       0.987894
17.8211       206700       0.987543
17.8298       206800       0.987192
17.8384       206900       0.986842
17.847       207000       0.986492
17.8556       207100       0.986142
17.8642       207200       0.985793
17.8729       207300       0.985444
17.8815       207400       0.985095
17.8901       207500       0.984746
17.8987       207600       0.984398
17.9073       207700       0.98405
17.916       207800       0.983703
17.9246       207900       0.983356
17.9332       208000       0.983009
17.9418       208100       0.982662
17.9505       208200       0.982316
17.9591       208300       0.98197
17.9677       208400       0.981624
17.9763       208500       0.981278
17.9849       208600       0.980933
17.9936       208700       0.980588
18.0022       208800       0.980244
18.0108       208900       0.9799
18.0194       209000       0.979556
18.0281       209100       0.979212
18.0367       209200       0.978869
18.0453       209300       0.978525
18.0539       209400       0.978183
18.0625       209500       0.97784
18.0712       209600       0.977498
18.0798       209700       0.977156
18.0884       209800       0.976814
18.097       209900       0.976473
18.1056       210000       0.976132
18.1143       210100       0.975791
18.1229       210200       0.975451
18.1315       210300       0.975111
18.1401       210400       0.974771
18.1488       210500       0.974431
18.1574       210600       0.974092
18.166       210700       0.973753
18.1746       210800       0.973414
18.1832       210900       0.973076
18.1919       211000       0.972737
18.2005       211100       0.9724
18.2091       211200       0.972062
18.2177       211300       0.971725
18.2264       211400       0.971388
18.235       211500       0.971051
18.2436       211600       0.970715
18.2522       211700       0.970378
18.2608       211800       0.970043
18.2695       211900       0.969707
18.2781       212000       0.969372
18.2867       212100       0.969037
18.2953       212200       0.968702
18.3039       212300       0.968368
18.3126       212400       0.968033
18.3212       212500       0.9677
18.3298       212600       0.967366
18.3384       212700       0.967033
18.3471       212800       0.9667
18.3557       212900       0.966367
18.3643       213000       0.966034
18.3729       213100       0.965702
18.3815       213200       0.96537
18.3902       213300       0.965039
18.3988       213400       0.964707
18.4074       213500       0.964376
18.416       213600       0.964045
18.4247       213700       0.963715
18.4333       213800       0.963385
18.4419       213900       0.963055
18.4505       214000       0.962725
18.4591       214100       0.962395
18.4678       214200       0.962066
18.4764       214300       0.961737
18.485       214400       0.961409
18.4936       214500       0.961081
18.5022       214600       0.960752
18.5109       214700       0.960425
18.5195       214800       0.960097
18.5281       214900       0.95977
18.5367       215000       0.959443
18.5454       215100       0.959116
18.554       215200       0.95879
18.5626       215300       0.958464
18.5712       215400       0.958138
18.5798       215500       0.957812
18.5885       215600       0.957487
18.5971       215700       0.957162
18.6057       215800       0.956837
18.6143       215900       0.956513
18.623       216000       0.956188
18.6316       216100       0.955864
18.6402       216200       0.955541
18.6488       216300       0.955217
18.6574       216400       0.954894
18.6661       216500       0.954571
18.6747       216600       0.954249
18.6833       216700       0.953926
18.6919       216800       0.953604
18.7005       216900       0.953282
18.7092       217000       0.952961
18.7178       217100       0.952639
18.7264       217200       0.952318
18.735       217300       0.951998
18.7437       217400       0.951677
18.7523       217500       0.951357
18.7609       217600       0.951037
18.7695       217700       0.950717
18.7781       217800       0.950398
18.7868       217900       0.950078
18.7954       218000       0.949759
18.804       218100       0.949441
18.8126       218200       0.949122
18.8213       218300       0.948804
18.8299       218400       0.948486
18.8385       218500       0.948169
18.8471       218600       0.947851
18.8557       218700       0.947534
18.8644       218800       0.947217
18.873       218900       0.946901
18.8816       219000       0.946584
18.8902       219100       0.946268
18.8988       219200       0.945953
18.9075       219300       0.945637
18.9161       219400       0.945322
18.9247       219500       0.945007
18.9333       219600       0.944692
18.942       219700       0.944377
18.9506       219800       0.944063
18.9592       219900       0.943749
18.9678       220000       0.943435
18.9764       220100       0.943122
18.9851       220200       0.942808
18.9937       220300       0.942495
19.0023       220400       0.942183
19.0109       220500       0.94187
19.0196       220600       0.941558
19.0282       220700       0.941246
19.0368       220800       0.940934
19.0454       220900       0.940623
19.054       221000       0.940311
19.0627       221100       0.94
19.0713       221200       0.93969
19.0799       221300       0.939379
19.0885       221400       0.939069
19.0971       221500       0.938759
19.1058       221600       0.938449
19.1144       221700       0.93814
19.123       221800       0.937831
19.1316       221900       0.937522
19.1403       222000       0.937213
19.1489       222100       0.936904
19.1575       222200       0.936596
19.1661       222300       0.936288
19.1747       222400       0.93598
19.1834       222500       0.935673
19.192       222600       0.935366
19.2006       222700       0.935059
19.2092       222800       0.934752
19.2179       222900       0.934445
19.2265       223000       0.934139
19.2351       223100       0.933833
19.2437       223200       0.933527
19.2523       223300       0.933222
19.261       223400       0.932917
19.2696       223500       0.932612
19.2782       223600       0.932307
19.2868       223700       0.932002
19.2954       223800       0.931698
19.3041       223900       0.931394
19.3127       224000       0.93109
19.3213       224100       0.930786
19.3299       224200       0.930483
19.3386       224300       0.93018
19.3472       224400       0.929877
19.3558       224500       0.929575
19.3644       224600       0.929272
19.373       224700       0.92897
19.3817       224800       0.928668
19.3903       224900       0.928367
19.3989       225000       0.928065
19.4075       225100       0.927764
19.4162       225200       0.927463
19.4248       225300       0.927162
19.4334       225400       0.926862
19.442       225500       0.926562
19.4506       225600       0.926262
19.4593       225700       0.925962
19.4679       225800       0.925662
19.4765       225900       0.925363
19.4851       226000       0.925064
19.4937       226100       0.924765
19.5024       226200       0.924467
19.511       226300       0.924168
19.5196       226400       0.92387
19.5282       226500       0.923572
19.5369       226600       0.923275
19.5455       226700       0.922977
19.5541       226800       0.92268
19.5627       226900       0.922383
19.5713       227000       0.922087
19.58       227100       0.92179
19.5886       227200       0.921494
19.5972       227300       0.921198
19.6058       227400       0.920902
19.6145       227500       0.920607
19.6231       227600       0.920311
19.6317       227700       0.920016
19.6403       227800       0.919722
19.6489       227900       0.919427
19.6576       228000       0.919133
19.6662       228100       0.918838
19.6748       228200       0.918544
19.6834       228300       0.918251
19.692       228400       0.917957
19.7007       228500       0.917664
19.7093       228600       0.917371
19.7179       228700       0.917078
19.7265       228800       0.916786
19.7352       228900       0.916494
19.7438       229000       0.916201
19.7524       229100       0.91591
19.761       229200       0.915618
19.7696       229300       0.915327
19.7783       229400       0.915035
19.7869       229500       0.914744
19.7955       229600       0.914454
19.8041       229700       0.914163
19.8128       229800       0.913873
19.8214       229900       0.913583
19.83       230000       0.913293
19.8386       230100       0.913004
19.8472       230200       0.912714
19.8559       230300       0.912425
19.8645       230400       0.912136
19.8731       230500       0.911847
19.8817       230600       0.911559
19.8903       230700       0.911271
19.899       230800       0.910983
19.9076       230900       0.910695
19.9162       231000       0.910407
19.9248       231100       0.91012
19.9335       231200       0.909833
19.9421       231300       0.909546
19.9507       231400       0.909259
19.9593       231500       0.908973
19.9679       231600       0.908686
19.9766       231700       0.9084
19.9852       231800       0.908115
19.9938       231900       0.907829
20.0024       232000       0.907544
20.0111       232100       0.907258
20.0197       232200       0.906974
20.0283       232300       0.906689
20.0369       232400       0.906404
20.0455       232500       0.90612
20.0542       232600       0.905836
20.0628       232700       0.905552
20.0714       232800       0.905268
20.08       232900       0.904985
20.0886       233000       0.904702
20.0973       233100       0.904419
20.1059       233200       0.904136
20.1145       233300       0.903854
20.1231       233400       0.903571
20.1318       233500       0.903289
20.1404       233600       0.903007
20.149       233700       0.902726
20.1576       233800       0.902444
20.1662       233900       0.902163
20.1749       234000       0.901882
20.1835       234100       0.901601
20.1921       234200       0.90132
20.2007       234300       0.90104
20.2094       234400       0.90076
20.218       234500       0.90048
20.2266       234600       0.9002
20.2352       234700       0.89992
20.2438       234800       0.899641
20.2525       234900       0.899362
20.2611       235000       0.899083
20.2697       235100       0.898804
20.2783       235200       0.898526
20.2869       235300       0.898248
20.2956       235400       0.897969
20.3042       235500       0.897692
20.3128       235600       0.897414
20.3214       235700       0.897137
20.3301       235800       0.896859
20.3387       235900       0.896582
20.3473       236000       0.896305
20.3559       236100       0.896029
20.3645       236200       0.895752
20.3732       236300       0.895476
20.3818       236400       0.8952
20.3904       236500       0.894925
20.399       236600       0.894649
20.4077       236700       0.894374
20.4163       236800       0.894098
20.4249       236900       0.893823
20.4335       237000       0.893549
20.4421       237100       0.893274
20.4508       237200       0.893
20.4594       237300       0.892726
20.468       237400       0.892452
20.4766       237500       0.892178
20.4852       237600       0.891905
20.4939       237700       0.891631
20.5025       237800       0.891358
20.5111       237900       0.891085
20.5197       238000       0.890813
20.5284       238100       0.89054
20.537       238200       0.890268
20.5456       238300       0.889996
20.5542       238400       0.889724
20.5628       238500       0.889452
20.5715       238600       0.889181
20.5801       238700       0.88891
20.5887       238800       0.888638
20.5973       238900       0.888368
20.606       239000       0.888097
20.6146       239100       0.887827
20.6232       239200       0.887556
20.6318       239300       0.887286
20.6404       239400       0.887016
20.6491       239500       0.886747
20.6577       239600       0.886477
20.6663       239700       0.886208
20.6749       239800       0.885939
20.6835       239900       0.88567
20.6922       240000       0.885401
20.7008       240100       0.885133
20.7094       240200       0.884865
20.718       240300       0.884597
20.7267       240400       0.884329
20.7353       240500       0.884061
20.7439       240600       0.883794
20.7525       240700       0.883526
20.7611       240800       0.883259
20.7698       240900       0.882992
20.7784       241000       0.882726
20.787       241100       0.882459
20.7956       241200       0.882193
20.8043       241300       0.881927
20.8129       241400       0.881661
20.8215       241500       0.881395
20.8301       241600       0.88113
20.8387       241700       0.880865
20.8474       241800       0.880599
20.856       241900       0.880335
20.8646       242000       0.88007
20.8732       242100       0.879805
20.8818       242200       0.879541
20.8905       242300       0.879277
20.8991       242400       0.879013
20.9077       242500       0.878749
20.9163       242600       0.878486
20.925       242700       0.878222
20.9336       242800       0.877959
20.9422       242900       0.877696
20.9508       243000       0.877433
20.9594       243100       0.877171
20.9681       243200       0.876908
20.9767       243300       0.876646
20.9853       243400       0.876384
20.9939       243500       0.876122
21.0026       243600       0.875861
21.0112       243700       0.875599
21.0198       243800       0.875338
21.0284       243900       0.875077
21.037       244000       0.874816
21.0457       244100       0.874555
21.0543       244200       0.874295
21.0629       244300       0.874034
21.0715       244400       0.873774
21.0801       244500       0.873514
21.0888       244600       0.873255
21.0974       244700       0.872995
21.106       244800       0.872736
21.1146       244900       0.872477
21.1233       245000       0.872218
21.1319       245100       0.871959
21.1405       245200       0.8717
21.1491       245300       0.871442
21.1577       245400       0.871184
21.1664       245500       0.870925
21.175       245600       0.870668
21.1836       245700       0.87041
21.1922       245800       0.870152
21.2009       245900       0.869895
21.2095       246000       0.869638
21.2181       246100       0.869381
21.2267       246200       0.869124
21.2353       246300       0.868868
21.244       246400       0.868611
21.2526       246500       0.868355
21.2612       246600       0.868099
21.2698       246700       0.867843
21.2784       246800       0.867588
21.2871       246900       0.867332
21.2957       247000       0.867077
21.3043       247100       0.866822
21.3129       247200       0.866567
21.3216       247300       0.866312
21.3302       247400       0.866058
21.3388       247500       0.865803
21.3474       247600       0.865549
21.356       247700       0.865295
21.3647       247800       0.865041
21.3733       247900       0.864788
21.3819       248000       0.864534
21.3905       248100       0.864281
21.3992       248200       0.864028
21.4078       248300       0.863775
21.4164       248400       0.863522
21.425       248500       0.86327
21.4336       248600       0.863018
21.4423       248700       0.862765
21.4509       248800       0.862513
21.4595       248900       0.862261
21.4681       249000       0.86201
21.4767       249100       0.861758
21.4854       249200       0.861507
21.494       249300       0.861256
21.5026       249400       0.861005
21.5112       249500       0.860754
21.5199       249600       0.860504
21.5285       249700       0.860253
21.5371       249800       0.860003
21.5457       249900       0.859753
21.5543       250000       0.859503
21.563       250100       0.859254
21.5716       250200       0.859004
21.5802       250300       0.858755
21.5888       250400       0.858506
21.5975       250500       0.858257
21.6061       250600       0.858008
21.6147       250700       0.857759
21.6233       250800       0.857511
21.6319       250900       0.857263
21.6406       251000       0.857014
21.6492       251100       0.856766
21.6578       251200       0.856519
21.6664       251300       0.856271
21.675       251400       0.856024
21.6837       251500       0.855777
21.6923       251600       0.85553
21.7009       251700       0.855283
21.7095       251800       0.855036
21.7182       251900       0.854789
21.7268       252000       0.854543
21.7354       252100       0.854297
21.744       252200       0.854051
21.7526       252300       0.853805
21.7613       252400       0.853559
21.7699       252500       0.853314
21.7785       252600       0.853069
21.7871       252700       0.852823
21.7958       252800       0.852579
21.8044       252900       0.852334
21.813       253000       0.852089
21.8216       253100       0.851845
21.8302       253200       0.8516
21.8389       253300       0.851356
21.8475       253400       0.851112
21.8561       253500       0.850869
21.8647       253600       0.850625
21.8733       253700       0.850382
21.882       253800       0.850138
21.8906       253900       0.849895
21.8992       254000       0.849652
21.9078       254100       0.849409
21.9165       254200       0.849167
21.9251       254300       0.848924
21.9337       254400       0.848682
21.9423       254500       0.84844
21.9509       254600       0.848198
21.9596       254700       0.847957
21.9682       254800       0.847715
21.9768       254900       0.847474
21.9854       255000       0.847232
21.9941       255100       0.846991
22.0027       255200       0.84675
22.0113       255300       0.84651
22.0199       255400       0.846269
22.0285       255500       0.846029
22.0372       255600       0.845788
22.0458       255700       0.845548
22.0544       255800       0.845308
22.063       255900       0.845069
22.0716       256000       0.844829
22.0803       256100       0.84459
22.0889       256200       0.844351
22.0975       256300       0.844111
22.1061       256400       0.843873
22.1148       256500       0.843634
22.1234       256600       0.843395
22.132       256700       0.843157
22.1406       256800       0.842919
22.1492       256900       0.842681
22.1579       257000       0.842443
22.1665       257100       0.842205
22.1751       257200       0.841967
22.1837       257300       0.84173
22.1924       257400       0.841493
22.201       257500       0.841256
22.2096       257600       0.841019
22.2182       257700       0.840782
22.2268       257800       0.840545
22.2355       257900       0.840309
22.2441       258000       0.840072
22.2527       258100       0.839836
22.2613       258200       0.8396
22.2699       258300       0.839365
22.2786       258400       0.839129
22.2872       258500       0.838893
22.2958       258600       0.838658
22.3044       258700       0.838423
22.3131       258800       0.838188
22.3217       258900       0.837953
22.3303       259000       0.837719
22.3389       259100       0.837484
22.3475       259200       0.83725
22.3562       259300       0.837015
22.3648       259400       0.836781
22.3734       259500       0.836548
22.382       259600       0.836314
22.3907       259700       0.83608
22.3993       259800       0.835847
22.4079       259900       0.835614
22.4165       260000       0.835381
22.4251       260100       0.835148
22.4338       260200       0.834915
22.4424       260300       0.834682
22.451       260400       0.83445
22.4596       260500       0.834218
22.4682       260600       0.833985
22.4769       260700       0.833754
22.4855       260800       0.833522
22.4941       260900       0.83329
22.5027       261000       0.833059
22.5114       261100       0.832827
22.52       261200       0.832596
22.5286       261300       0.832365
22.5372       261400       0.832134
22.5458       261500       0.831903
22.5545       261600       0.831673
22.5631       261700       0.831442
22.5717       261800       0.831212
22.5803       261900       0.830982
22.589       262000       0.830752
22.5976       262100       0.830522
22.6062       262200       0.830293
22.6148       262300       0.830063
22.6234       262400       0.829834
22.6321       262500       0.829605
22.6407       262600       0.829376
22.6493       262700       0.829147
22.6579       262800       0.828918
22.6665       262900       0.82869
22.6752       263000       0.828461
22.6838       263100       0.828233
22.6924       263200       0.828005
22.701       263300       0.827777
22.7097       263400       0.827549
22.7183       263500       0.827322
22.7269       263600       0.827094
22.7355       263700       0.826867
22.7441       263800       0.82664
22.7528       263900       0.826413
22.7614       264000       0.826186
22.77       264100       0.825959
22.7786       264200       0.825733
22.7873       264300       0.825506
22.7959       264400       0.82528
22.8045       264500       0.825054
22.8131       264600       0.824828
22.8217       264700       0.824602
22.8304       264800       0.824377
22.839       264900       0.824151
22.8476       265000       0.823926
22.8562       265100       0.8237
22.8648       265200       0.823475
22.8735       265300       0.823251
22.8821       265400       0.823026
22.8907       265500       0.822801
22.8993       265600       0.822577
22.908       265700       0.822352
22.9166       265800       0.822128
22.9252       265900       0.821904
22.9338       266000       0.82168
22.9424       266100       0.821457
22.9511       266200       0.821233
22.9597       266300       0.82101
22.9683       266400       0.820787
22.9769       266500       0.820563
22.9856       266600       0.82034
22.9942       266700       0.820118
23.0028       266800       0.819895
23.0114       266900       0.819672
23.02       267000       0.81945
23.0287       267100       0.819228
23.0373       267200       0.819006
23.0459       267300       0.818784
23.0545       267400       0.818562
23.0631       267500       0.81834
23.0718       267600       0.818119
23.0804       267700       0.817898
23.089       267800       0.817676
23.0976       267900       0.817455
23.1063       268000       0.817235
23.1149       268100       0.817014
23.1235       268200       0.816793
23.1321       268300       0.816573
23.1407       268400       0.816352
23.1494       268500       0.816132
23.158       268600       0.815912
23.1666       268700       0.815692
23.1752       268800       0.815472
23.1839       268900       0.815253
23.1925       269000       0.815033
23.2011       269100       0.814814
23.2097       269200       0.814595
23.2183       269300       0.814376
23.227       269400       0.814157
23.2356       269500       0.813938
23.2442       269600       0.81372
23.2528       269700       0.813501
23.2614       269800       0.813283
23.2701       269900       0.813065
23.2787       270000       0.812847
23.2873       270100       0.812629
23.2959       270200       0.812411
23.3046       270300       0.812194
23.3132       270400       0.811976
23.3218       270500       0.811759
23.3304       270600       0.811542
23.339       270700       0.811325
23.3477       270800       0.811108
23.3563       270900       0.810891
23.3649       271000       0.810674
23.3735       271100       0.810458
23.3822       271200       0.810242
23.3908       271300       0.810025
23.3994       271400       0.809809
23.408       271500       0.809594
23.4166       271600       0.809378
23.4253       271700       0.809162
23.4339       271800       0.808947
23.4425       271900       0.808731
23.4511       272000       0.808516
23.4597       272100       0.808301
23.4684       272200       0.808086
23.477       272300       0.807871
23.4856       272400       0.807657
23.4942       272500       0.807442
23.5029       272600       0.807228
23.5115       272700       0.807014
23.5201       272800       0.8068
23.5287       272900       0.806586
23.5373       273000       0.806372
23.546       273100       0.806158
23.5546       273200       0.805945
23.5632       273300       0.805731
23.5718       273400       0.805518
23.5805       273500       0.805305
23.5891       273600       0.805092
23.5977       273700       0.804879
23.6063       273800       0.804666
23.6149       273900       0.804454
23.6236       274000       0.804241
23.6322       274100       0.804029
23.6408       274200       0.803817
23.6494       274300       0.803605
23.658       274400       0.803393
23.6667       274500       0.803181
23.6753       274600       0.80297
23.6839       274700       0.802758
23.6925       274800       0.802547
23.7012       274900       0.802336
23.7098       275000       0.802125
23.7184       275100       0.801914
23.727       275200       0.801703
23.7356       275300       0.801492
23.7443       275400       0.801282
23.7529       275500       0.801071
23.7615       275600       0.800861
23.7701       275700       0.800651
23.7788       275800       0.800441
23.7874       275900       0.800231
23.796       276000       0.800021
23.8046       276100       0.799812
23.8132       276200       0.799602
23.8219       276300       0.799393
23.8305       276400       0.799184
23.8391       276500       0.798975
23.8477       276600       0.798766
23.8563       276700       0.798557
23.865       276800       0.798348
23.8736       276900       0.79814
23.8822       277000       0.797932
23.8908       277100       0.797723
23.8995       277200       0.797515
23.9081       277300       0.797307
23.9167       277400       0.797099
23.9253       277500       0.796892
23.9339       277600       0.796684
23.9426       277700       0.796477
23.9512       277800       0.796269
23.9598       277900       0.796062
23.9684       278000       0.795855
23.9771       278100       0.795648
23.9857       278200       0.795441
23.9943       278300       0.795235
24.0029       278400       0.795028
24.0115       278500       0.794822
24.0202       278600       0.794615
24.0288       278700       0.794409
24.0374       278800       0.794203
24.046       278900       0.793997
24.0546       279000       0.793792
24.0633       279100       0.793586
24.0719       279200       0.793381
24.0805       279300       0.793175
24.0891       279400       0.79297
24.0978       279500       0.792765
24.1064       279600       0.79256
24.115       279700       0.792355
24.1236       279800       0.79215
24.1322       279900       0.791946
24.1409       280000       0.791741
24.1495       280100       0.791537
24.1581       280200       0.791333
24.1667       280300       0.791129
24.1754       280400       0.790925
24.184       280500       0.790721
24.1926       280600       0.790517
24.2012       280700       0.790314
24.2098       280800       0.79011
24.2185       280900       0.789907
24.2271       281000       0.789704
24.2357       281100       0.789501
24.2443       281200       0.789298
24.2529       281300       0.789095
24.2616       281400       0.788892
24.2702       281500       0.78869
24.2788       281600       0.788487
24.2874       281700       0.788285
24.2961       281800       0.788083
24.3047       281900       0.787881
24.3133       282000       0.787679
24.3219       282100       0.787477
24.3305       282200       0.787275
24.3392       282300       0.787074
24.3478       282400       0.786873
24.3564       282500       0.786671
24.365       282600       0.78647
24.3737       282700       0.786269
24.3823       282800       0.786068
24.3909       282900       0.785867
24.3995       283000       0.785667
24.4081       283100       0.785466
24.4168       283200       0.785266
24.4254       283300       0.785066
24.434       283400       0.784865
24.4426       283500       0.784665
24.4512       283600       0.784465
24.4599       283700       0.784266
24.4685       283800       0.784066
24.4771       283900       0.783866
24.4857       284000       0.783667
24.4944       284100       0.783468
24.503       284200       0.783269
24.5116       284300       0.78307
24.5202       284400       0.782871
24.5288       284500       0.782672
24.5375       284600       0.782473
24.5461       284700       0.782275
24.5547       284800       0.782076
24.5633       284900       0.781878
24.572       285000       0.78168
24.5806       285100       0.781482
24.5892       285200       0.781284
24.5978       285300       0.781086
24.6064       285400       0.780888
24.6151       285500       0.780691
24.6237       285600       0.780493
24.6323       285700       0.780296
24.6409       285800       0.780099
24.6495       285900       0.779902
24.6582       286000       0.779705
24.6668       286100       0.779508
24.6754       286200       0.779311
24.684       286300       0.779115
24.6927       286400       0.778918
24.7013       286500       0.778722
24.7099       286600       0.778526
24.7185       286700       0.778329
24.7271       286800       0.778133
24.7358       286900       0.777938
24.7444       287000       0.777742
24.753       287100       0.777546
24.7616       287200       0.777351
24.7703       287300       0.777155
24.7789       287400       0.77696
24.7875       287500       0.776765
24.7961       287600       0.77657
24.8047       287700       0.776375
24.8134       287800       0.77618
24.822       287900       0.775985
24.8306       288000       0.775791
24.8392       288100       0.775596
24.8478       288200       0.775402
24.8565       288300       0.775208
24.8651       288400       0.775014
24.8737       288500       0.77482
24.8823       288600       0.774626
24.891       288700       0.774432
24.8996       288800       0.774239
24.9082       288900       0.774045
24.9168       289000       0.773852
24.9254       289100       0.773659
24.9341       289200       0.773466
24.9427       289300       0.773273
24.9513       289400       0.77308
24.9599       289500       0.772887
24.9686       289600       0.772694
24.9772       289700       0.772502
24.9858       289800       0.772309
24.9944       289900       0.772117
25.003       290000       0.771925
25.0117       290100       0.771733
25.0203       290200       0.771541
25.0289       290300       0.771349
25.0375       290400       0.771157
25.0461       290500       0.770965
25.0548       290600       0.770774
25.0634       290700       0.770583
25.072       290800       0.770391
25.0806       290900       0.7702
25.0893       291000       0.770009
25.0979       291100       0.769818
25.1065       291200       0.769627
25.1151       291300       0.769437
25.1237       291400       0.769246
25.1324       291500       0.769056
25.141       291600       0.768865
25.1496       291700       0.768675
25.1582       291800       0.768485
25.1669       291900       0.768295
25.1755       292000       0.768105
25.1841       292100       0.767915
25.1927       292200       0.767726
25.2013       292300       0.767536
25.21       292400       0.767347
25.2186       292500       0.767157
25.2272       292600       0.766968
25.2358       292700       0.766779
25.2444       292800       0.76659
25.2531       292900       0.766401
25.2617       293000       0.766213
25.2703       293100       0.766024
25.2789       293200       0.765835
25.2876       293300       0.765647
25.2962       293400       0.765459
25.3048       293500       0.765271
25.3134       293600       0.765082
25.322       293700       0.764895
25.3307       293800       0.764707
25.3393       293900       0.764519
25.3479       294000       0.764331
25.3565       294100       0.764144
25.3652       294200       0.763956
25.3738       294300       0.763769
25.3824       294400       0.763582
25.391       294500       0.763395
25.3996       294600       0.763208
25.4083       294700       0.763021
25.4169       294800       0.762834
25.4255       294900       0.762648
25.4341       295000       0.762461
25.4427       295100       0.762275
25.4514       295200       0.762089
25.46       295300       0.761903
25.4686       295400       0.761716
25.4772       295500       0.761531
25.4859       295600       0.761345
25.4945       295700       0.761159
25.5031       295800       0.760973
25.5117       295900       0.760788
25.5203       296000       0.760602
25.529       296100       0.760417
25.5376       296200       0.760232
25.5462       296300       0.760047
25.5548       296400       0.759862
25.5635       296500       0.759677
25.5721       296600       0.759492
25.5807       296700       0.759308
25.5893       296800       0.759123
25.5979       296900       0.758939
25.6066       297000       0.758755
25.6152       297100       0.75857
25.6238       297200       0.758386
25.6324       297300       0.758202
25.641       297400       0.758018
25.6497       297500       0.757835
25.6583       297600       0.757651
25.6669       297700       0.757468
25.6755       297800       0.757284
25.6842       297900       0.757101
25.6928       298000       0.756918
25.7014       298100       0.756735
25.71       298200       0.756552
25.7186       298300       0.756369
25.7273       298400       0.756186
25.7359       298500       0.756003
25.7445       298600       0.755821
25.7531       298700       0.755638
25.7618       298800       0.755456
25.7704       298900       0.755274
25.779       299000       0.755091
25.7876       299100       0.754909
25.7962       299200       0.754728
25.8049       299300       0.754546
25.8135       299400       0.754364
25.8221       299500       0.754182
25.8307       299600       0.754001
25.8393       299700       0.75382
25.848       299800       0.753638
25.8566       299900       0.753457
25.8652       300000       0.753276
25.8738       300100       0.753095
25.8825       300200       0.752914
25.8911       300300       0.752733
25.8997       300400       0.752553
25.9083       300500       0.752372
25.9169       300600       0.752192
25.9256       300700       0.752012
25.9342       300800       0.751831
25.9428       300900       0.751651
25.9514       301000       0.751471
25.9601       301100       0.751291
25.9687       301200       0.751112
25.9773       301300       0.750932
25.9859       301400       0.750752
25.9945       301500       0.750573
26.0032       301600       0.750393
26.0118       301700       0.750214
26.0204       301800       0.750035
26.029       301900       0.749856
26.0376       302000       0.749677
26.0463       302100       0.749498
26.0549       302200       0.749319
26.0635       302300       0.749141
26.0721       302400       0.748962
26.0808       302500       0.748784
26.0894       302600       0.748605
26.098       302700       0.748427
26.1066       302800       0.748249
26.1152       302900       0.748071
26.1239       303000       0.747893
26.1325       303100       0.747715
26.1411       303200       0.747537
26.1497       303300       0.74736
26.1584       303400       0.747182
26.167       303500       0.747005
26.1756       303600       0.746828
26.1842       303700       0.74665
26.1928       303800       0.746473
26.2015       303900       0.746296
26.2101       304000       0.746119
26.2187       304100       0.745943
26.2273       304200       0.745766
26.2359       304300       0.745589
26.2446       304400       0.745413
26.2532       304500       0.745236
26.2618       304600       0.74506
26.2704       304700       0.744884
26.2791       304800       0.744708
26.2877       304900       0.744532
26.2963       305000       0.744356
26.3049       305100       0.74418
26.3135       305200       0.744005
26.3222       305300       0.743829
26.3308       305400       0.743653
26.3394       305500       0.743478
26.348       305600       0.743303
26.3567       305700       0.743128
26.3653       305800       0.742953
26.3739       305900       0.742778
26.3825       306000       0.742603
26.3911       306100       0.742428
26.3998       306200       0.742253
26.4084       306300       0.742079
26.417       306400       0.741904
26.4256       306500       0.74173
26.4342       306600       0.741556
26.4429       306700       0.741381
26.4515       306800       0.741207
26.4601       306900       0.741033
26.4687       307000       0.74086
26.4774       307100       0.740686
26.486       307200       0.740512
26.4946       307300       0.740339
26.5032       307400       0.740165
26.5118       307500       0.739992
26.5205       307600       0.739818
26.5291       307700       0.739645
26.5377       307800       0.739472
26.5463       307900       0.739299
26.555       308000       0.739126
26.5636       308100       0.738953
26.5722       308200       0.738781
26.5808       308300       0.738608
26.5894       308400       0.738436
26.5981       308500       0.738263
26.6067       308600       0.738091
26.6153       308700       0.737919
26.6239       308800       0.737747
26.6325       308900       0.737575
26.6412       309000       0.737403
26.6498       309100       0.737231
26.6584       309200       0.737059
26.667       309300       0.736888
26.6757       309400       0.736716
26.6843       309500       0.736545
26.6929       309600       0.736374
26.7015       309700       0.736202
26.7101       309800       0.736031
26.7188       309900       0.73586
26.7274       310000       0.735689
26.736       310100       0.735518
26.7446       310200       0.735348
26.7533       310300       0.735177
26.7619       310400       0.735006
26.7705       310500       0.734836
26.7791       310600       0.734666
26.7877       310700       0.734495
26.7964       310800       0.734325
26.805       310900       0.734155
26.8136       311000       0.733985
26.8222       311100       0.733815
26.8308       311200       0.733646
26.8395       311300       0.733476
26.8481       311400       0.733306
26.8567       311500       0.733137
26.8653       311600       0.732967
26.874       311700       0.732798
26.8826       311800       0.732629
26.8912       311900       0.73246
26.8998       312000       0.732291
26.9084       312100       0.732122
26.9171       312200       0.731953
26.9257       312300       0.731784
26.9343       312400       0.731616
26.9429       312500       0.731447
26.9516       312600       0.731279
26.9602       312700       0.73111
26.9688       312800       0.730942
26.9774       312900       0.730774
26.986       313000       0.730606
26.9947       313100       0.730438
27.0033       313200       0.73027
27.0119       313300       0.730102
27.0205       313400       0.729935
27.0291       313500       0.729767
27.0378       313600       0.7296
27.0464       313700       0.729432
27.055       313800       0.729265
27.0636       313900       0.729098
27.0723       314000       0.728931
27.0809       314100       0.728763
27.0895       314200       0.728597
27.0981       314300       0.72843
27.1067       314400       0.728263
27.1154       314500       0.728096
27.124       314600       0.72793
27.1326       314700       0.727763
27.1412       314800       0.727597
27.1499       314900       0.727431
27.1585       315000       0.727264
27.1671       315100       0.727098
27.1757       315200       0.726932
27.1843       315300       0.726766
27.193       315400       0.726601
27.2016       315500       0.726435
27.2102       315600       0.726269
27.2188       315700       0.726104
27.2274       315800       0.725938
27.2361       315900       0.725773
27.2447       316000       0.725608
27.2533       316100       0.725442
27.2619       316200       0.725277
27.2706       316300       0.725112
27.2792       316400       0.724947
27.2878       316500       0.724783
27.2964       316600       0.724618
27.305       316700       0.724453
27.3137       316800       0.724289
27.3223       316900       0.724124
27.3309       317000       0.72396
27.3395       317100       0.723796
27.3482       317200       0.723631
27.3568       317300       0.723467
27.3654       317400       0.723303
27.374       317500       0.723139
27.3826       317600       0.722976
27.3913       317700       0.722812
27.3999       317800       0.722648
27.4085       317900       0.722485
27.4171       318000       0.722321
27.4257       318100       0.722158
27.4344       318200       0.721995
27.443       318300       0.721831
27.4516       318400       0.721668
27.4602       318500       0.721505
27.4689       318600       0.721342
27.4775       318700       0.72118
27.4861       318800       0.721017
27.4947       318900       0.720854
27.5033       319000       0.720692
27.512       319100       0.720529
27.5206       319200       0.720367
27.5292       319300       0.720205
27.5378       319400       0.720042
27.5465       319500       0.71988
27.5551       319600       0.719718
27.5637       319700       0.719556
27.5723       319800       0.719394
27.5809       319900       0.719233
27.5896       320000       0.719071
27.5982       320100       0.718909
27.6068       320200       0.718748
27.6154       320300       0.718587
27.624       320400       0.718425
27.6327       320500       0.718264
27.6413       320600       0.718103
27.6499       320700       0.717942
27.6585       320800       0.717781
27.6672       320900       0.71762
27.6758       321000       0.717459
27.6844       321100       0.717298
27.693       321200       0.717138
27.7016       321300       0.716977
27.7103       321400       0.716817
27.7189       321500       0.716657
27.7275       321600       0.716496
27.7361       321700       0.716336
27.7448       321800       0.716176
27.7534       321900       0.716016
27.762       322000       0.715856
27.7706       322100       0.715696
27.7792       322200       0.715537
27.7879       322300       0.715377
27.7965       322400       0.715217
27.8051       322500       0.715058
27.8137       322600       0.714898
27.8223       322700       0.714739
27.831       322800       0.71458
27.8396       322900       0.714421
27.8482       323000       0.714262
27.8568       323100       0.714103
27.8655       323200       0.713944
27.8741       323300       0.713785
27.8827       323400       0.713626
27.8913       323500       0.713468
27.8999       323600       0.713309
27.9086       323700       0.713151
27.9172       323800       0.712993
27.9258       323900       0.712834
27.9344       324000       0.712676
27.9431       324100       0.712518
27.9517       324200       0.71236
27.9603       324300       0.712202
27.9689       324400       0.712044
27.9775       324500       0.711886
27.9862       324600       0.711729
27.9948       324700       0.711571
28.0034       324800       0.711414
28.012       324900       0.711256
28.0206       325000       0.711099
28.0293       325100       0.710942
28.0379       325200       0.710785
28.0465       325300       0.710627
28.0551       325400       0.71047
28.0638       325500       0.710314
28.0724       325600       0.710157
28.081       325700       0.71
28.0896       325800       0.709843
28.0982       325900       0.709687
28.1069       326000       0.70953
28.1155       326100       0.709374
28.1241       326200       0.709218
28.1327       326300       0.709061
28.1414       326400       0.708905
28.15       326500       0.708749
28.1586       326600       0.708593
28.1672       326700       0.708437
28.1758       326800       0.708281
28.1845       326900       0.708126
28.1931       327000       0.70797
28.2017       327100       0.707814
28.2103       327200       0.707659
28.2189       327300       0.707504
28.2276       327400       0.707348
28.2362       327500       0.707193
28.2448       327600       0.707038
28.2534       327700       0.706883
28.2621       327800       0.706728
28.2707       327900       0.706573
28.2793       328000       0.706418
28.2879       328100       0.706263
28.2965       328200       0.706109
28.3052       328300       0.705954
28.3138       328400       0.7058
28.3224       328500       0.705645
28.331       328600       0.705491
28.3397       328700       0.705337
28.3483       328800       0.705182
28.3569       328900       0.705028
28.3655       329000       0.704874
28.3741       329100       0.704721
28.3828       329200       0.704567
28.3914       329300       0.704413
28.4       329400       0.704259
28.4086       329500       0.704106
28.4172       329600       0.703952
28.4259       329700       0.703799
28.4345       329800       0.703645
28.4431       329900       0.703492
28.4517       330000       0.703339
28.4604       330100       0.703186
28.469       330200       0.703033
28.4776       330300       0.70288
28.4862       330400       0.702727
28.4948       330500       0.702574
28.5035       330600       0.702422
28.5121       330700       0.702269
28.5207       330800       0.702116
28.5293       330900       0.701964
28.538       331000       0.701812
28.5466       331100       0.701659
28.5552       331200       0.701507
28.5638       331300       0.701355
28.5724       331400       0.701203
28.5811       331500       0.701051
28.5897       331600       0.700899
28.5983       331700       0.700747
28.6069       331800       0.700596
28.6155       331900       0.700444
28.6242       332000       0.700292
28.6328       332100       0.700141
28.6414       332200       0.699989
28.65       332300       0.699838
28.6587       332400       0.699687
28.6673       332500       0.699536
28.6759       332600       0.699385
28.6845       332700       0.699234
28.6931       332800       0.699083
28.7018       332900       0.698932
28.7104       333000       0.698781
28.719       333100       0.69863
28.7276       333200       0.69848
28.7363       333300       0.698329
28.7449       333400       0.698179
28.7535       333500       0.698028
28.7621       333600       0.697878
28.7707       333700       0.697728
28.7794       333800       0.697578
28.788       333900       0.697428
28.7966       334000       0.697278
28.8052       334100       0.697128
28.8138       334200       0.696978
28.8225       334300       0.696828
28.8311       334400       0.696678
28.8397       334500       0.696529
28.8483       334600       0.696379
28.857       334700       0.69623
28.8656       334800       0.696081
28.8742       334900       0.695931
28.8828       335000       0.695782
28.8914       335100       0.695633
28.9001       335200       0.695484
28.9087       335300       0.695335
28.9173       335400       0.695186
28.9259       335500       0.695037
28.9346       335600       0.694889
28.9432       335700       0.69474
28.9518       335800       0.694591
28.9604       335900       0.694443
28.969       336000       0.694294
28.9777       336100       0.694146
28.9863       336200       0.693998
28.9949       336300       0.69385
29.0035       336400       0.693701
29.0121       336500       0.693553
29.0208       336600       0.693405
29.0294       336700       0.693258
29.038       336800       0.69311
29.0466       336900       0.692962
29.0553       337000       0.692814
29.0639       337100       0.692667
29.0725       337200       0.692519
29.0811       337300       0.692372
29.0897       337400       0.692225
29.0984       337500       0.692077
29.107       337600       0.69193
29.1156       337700       0.691783
29.1242       337800       0.691636
29.1329       337900       0.691489
29.1415       338000       0.691342
29.1501       338100       0.691195
29.1587       338200       0.691049
29.1673       338300       0.690902
29.176       338400       0.690755
29.1846       338500       0.690609
29.1932       338600       0.690462
29.2018       338700       0.690316
29.2104       338800       0.69017
29.2191       338900       0.690023
29.2277       339000       0.689877
29.2363       339100       0.689731
29.2449       339200       0.689585
29.2536       339300       0.689439
29.2622       339400       0.689294
29.2708       339500       0.689148
29.2794       339600       0.689002
29.288       339700       0.688856
29.2967       339800       0.688711
29.3053       339900       0.688566
29.3139       340000       0.68842
29.3225       340100       0.688275
29.3312       340200       0.68813
29.3398       340300       0.687984
29.3484       340400       0.687839
29.357       340500       0.687694
29.3656       340600       0.687549
29.3743       340700       0.687405
29.3829       340800       0.68726
29.3915       340900       0.687115
29.4001       341000       0.68697
29.4087       341100       0.686826
29.4174       341200       0.686681
29.426       341300       0.686537
29.4346       341400       0.686393
29.4432       341500       0.686248
29.4519       341600       0.686104
29.4605       341700       0.68596
29.4691       341800       0.685816
29.4777       341900       0.685672
29.4863       342000       0.685528
29.495       342100       0.685384
29.5036       342200       0.685241
29.5122       342300       0.685097
29.5208       342400       0.684953
29.5295       342500       0.68481
29.5381       342600       0.684666
29.5467       342700       0.684523
29.5553       342800       0.68438
29.5639       342900       0.684236
29.5726       343000       0.684093
29.5812       343100       0.68395
29.5898       343200       0.683807
29.5984       343300       0.683664
29.607       343400       0.683521
29.6157       343500       0.683378
29.6243       343600       0.683236
29.6329       343700       0.683093
29.6415       343800       0.68295
29.6502       343900       0.682808
29.6588       344000       0.682665
29.6674       344100       0.682523
29.676       344200       0.682381
29.6846       344300       0.682239
29.6933       344400       0.682096
29.7019       344500       0.681954
29.7105       344600       0.681812
29.7191       344700       0.68167
29.7278       344800       0.681529
29.7364       344900       0.681387
29.745       345000       0.681245
29.7536       345100       0.681103
29.7622       345200       0.680962
29.7709       345300       0.68082
29.7795       345400       0.680679
29.7881       345500       0.680538
29.7967       345600       0.680396
29.8053       345700       0.680255
29.814       345800       0.680114
29.8226       345900       0.679973
29.8312       346000       0.679832
29.8398       346100       0.679691
29.8485       346200       0.67955
29.8571       346300       0.679409
29.8657       346400       0.679269
29.8743       346500       0.679128
29.8829       346600       0.678987
29.8916       346700       0.678847
29.9002       346800       0.678706
29.9088       346900       0.678566
29.9174       347000       0.678426
29.9261       347100       0.678285
29.9347       347200       0.678145
29.9433       347300       0.678005
29.9519       347400       0.677865
29.9605       347500       0.677725
29.9692       347600       0.677585
29.9778       347700       0.677446
29.9864       347800       0.677306
29.995       347900       0.677166
30.0036       348000       0.677027
30.0123       348100       0.676887
30.0209       348200       0.676748
30.0295       348300       0.676608
30.0381       348400       0.676469
30.0468       348500       0.67633
30.0554       348600       0.676191
30.064       348700       0.676051
30.0726       348800       0.675912
30.0812       348900       0.675773
30.0899       349000       0.675635
30.0985       349100       0.675496
30.1071       349200       0.675357
30.1157       349300       0.675218
30.1244       349400       0.67508
30.133       349500       0.674941
30.1416       349600       0.674803
30.1502       349700       0.674664
30.1588       349800       0.674526
30.1675       349900       0.674388
30.1761       350000       0.674249
30.1847       350100       0.674111
30.1933       350200       0.673973
30.2019       350300       0.673835
30.2106       350400       0.673697
30.2192       350500       0.67356
30.2278       350600       0.673422
30.2364       350700       0.673284
30.2451       350800       0.673146
30.2537       350900       0.673009
30.2623       351000       0.672871
30.2709       351100       0.672734
30.2795       351200       0.672596
30.2882       351300       0.672459
30.2968       351400       0.672322
30.3054       351500       0.672185
30.314       351600       0.672048
30.3227       351700       0.671911
30.3313       351800       0.671774
30.3399       351900       0.671637
30.3485       352000       0.6715
30.3571       352100       0.671363
30.3658       352200       0.671226
30.3744       352300       0.67109
30.383       352400       0.670953
30.3916       352500       0.670817
30.4002       352600       0.67068
30.4089       352700       0.670544
30.4175       352800       0.670408
30.4261       352900       0.670271
30.4347       353000       0.670135
30.4434       353100       0.669999
30.452       353200       0.669863
30.4606       353300       0.669727
30.4692       353400       0.669591
30.4778       353500       0.669456
30.4865       353600       0.66932
30.4951       353700       0.669184
30.5037       353800       0.669049
30.5123       353900       0.668913
30.521       354000       0.668777
30.5296       354100       0.668642
30.5382       354200       0.668507
30.5468       354300       0.668371
30.5554       354400       0.668236
30.5641       354500       0.668101
30.5727       354600       0.667966
30.5813       354700       0.667831
30.5899       354800       0.667696
30.5985       354900       0.667561
30.6072       355000       0.667426
30.6158       355100       0.667292
30.6244       355200       0.667157
30.633       355300       0.667022
30.6417       355400       0.666888
30.6503       355500       0.666753
30.6589       355600       0.666619
30.6675       355700       0.666484
30.6761       355800       0.66635
30.6848       355900       0.666216
30.6934       356000       0.666082
30.702       356100       0.665948
30.7106       356200       0.665814
30.7193       356300       0.66568
30.7279       356400       0.665546
30.7365       356500       0.665412
30.7451       356600       0.665278
30.7537       356700       0.665145
30.7624       356800       0.665011
30.771       356900       0.664877
30.7796       357000       0.664744
30.7882       357100       0.66461
30.7968       357200       0.664477
30.8055       357300       0.664344
30.8141       357400       0.66421
30.8227       357500       0.664077
30.8313       357600       0.663944
30.84       357700       0.663811
30.8486       357800       0.663678
30.8572       357900       0.663545
30.8658       358000       0.663412
30.8744       358100       0.66328
30.8831       358200       0.663147
30.8917       358300       0.663014
30.9003       358400       0.662882
30.9089       358500       0.662749
30.9176       358600       0.662617
30.9262       358700       0.662484
30.9348       358800       0.662352
30.9434       358900       0.66222
30.952       359000       0.662087
30.9607       359100       0.661955
30.9693       359200       0.661823
30.9779       359300       0.661691
30.9865       359400       0.661559
30.9951       359500       0.661427
31.0038       359600       0.661296
31.0124       359700       0.661164
31.021       359800       0.661032
31.0296       359900       0.660901
31.0383       360000       0.660769
31.0469       360100       0.660637
31.0555       360200       0.660506
31.0641       360300       0.660375
31.0727       360400       0.660243
31.0814       360500       0.660112
31.09       360600       0.659981
31.0986       360700       0.65985
31.1072       360800       0.659719
31.1159       360900       0.659588
31.1245       361000       0.659457
31.1331       361100       0.659326
31.1417       361200       0.659195
31.1503       361300       0.659064
31.159       361400       0.658934
31.1676       361500       0.658803
31.1762       361600       0.658673
31.1848       361700       0.658542
31.1934       361800       0.658412
31.2021       361900       0.658281
31.2107       362000       0.658151
31.2193       362100       0.658021
31.2279       362200       0.657891
31.2366       362300       0.65776
31.2452       362400       0.65763
31.2538       362500       0.6575
31.2624       362600       0.65737
31.271       362700       0.657241
31.2797       362800       0.657111
31.2883       362900       0.656981
31.2969       363000       0.656851
31.3055       363100       0.656722
31.3142       363200       0.656592
31.3228       363300       0.656463
31.3314       363400       0.656333
31.34       363500       0.656204
31.3486       363600       0.656075
31.3573       363700       0.655945
31.3659       363800       0.655816
31.3745       363900       0.655687
31.3831       364000       0.655558
31.3917       364100       0.655429
31.4004       364200       0.6553
31.409       364300       0.655171
31.4176       364400       0.655043
31.4262       364500       0.654914
31.4349       364600       0.654785
31.4435       364700       0.654656
31.4521       364800       0.654528
31.4607       364900       0.654399
31.4693       365000       0.654271
31.478       365100       0.654143
31.4866       365200       0.654014
31.4952       365300       0.653886
31.5038       365400       0.653758
31.5125       365500       0.65363
31.5211       365600       0.653502
31.5297       365700       0.653374
31.5383       365800       0.653246
31.5469       365900       0.653118
31.5556       366000       0.65299
31.5642       366100       0.652862
31.5728       366200       0.652735
31.5814       366300       0.652607
31.59       366400       0.652479
31.5987       366500       0.652352
31.6073       366600       0.652224
31.6159       366700       0.652097
31.6245       366800       0.65197
31.6332       366900       0.651842
31.6418       367000       0.651715
31.6504       367100       0.651588
31.659       367200       0.651461
31.6676       367300       0.651334
31.6763       367400       0.651207
31.6849       367500       0.65108
31.6935       367600       0.650953
31.7021       367700       0.650826
31.7108       367800       0.6507
31.7194       367900       0.650573
31.728       368000       0.650446
31.7366       368100       0.65032
31.7452       368200       0.650193
31.7539       368300       0.650067
31.7625       368400       0.64994
31.7711       368500       0.649814
31.7797       368600       0.649688
31.7883       368700       0.649562
31.797       368800       0.649435
31.8056       368900       0.649309
31.8142       369000       0.649183
31.8228       369100       0.649057
31.8315       369200       0.648932
31.8401       369300       0.648806
31.8487       369400       0.64868
31.8573       369500       0.648554
31.8659       369600       0.648429
31.8746       369700       0.648303
31.8832       369800       0.648177
31.8918       369900       0.648052
31.9004       370000       0.647926
31.9091       370100       0.647801
31.9177       370200       0.647676
31.9263       370300       0.647551
31.9349       370400       0.647425
31.9435       370500       0.6473
31.9522       370600       0.647175
31.9608       370700       0.64705
31.9694       370800       0.646925
31.978       370900       0.6468
31.9866       371000       0.646675
31.9953       371100       0.646551
32.0039       371200       0.646426
32.0125       371300       0.646301
32.0211       371400       0.646177
32.0298       371500       0.646052
32.0384       371600       0.645928
32.047       371700       0.645803
32.0556       371800       0.645679
32.0642       371900       0.645555
32.0729       372000       0.64543
32.0815       372100       0.645306
32.0901       372200       0.645182
32.0987       372300       0.645058
32.1074       372400       0.644934
32.116       372500       0.64481
32.1246       372600       0.644686
32.1332       372700       0.644562
32.1418       372800       0.644438
32.1505       372900       0.644315
32.1591       373000       0.644191
32.1677       373100       0.644067
32.1763       373200       0.643944
32.1849       373300       0.64382
32.1936       373400       0.643697
32.2022       373500       0.643574
32.2108       373600       0.64345
32.2194       373700       0.643327
32.2281       373800       0.643204
32.2367       373900       0.643081
32.2453       374000       0.642957
32.2539       374100       0.642834
32.2625       374200       0.642711
32.2712       374300       0.642589
32.2798       374400       0.642466
32.2884       374500       0.642343
32.297       374600       0.64222
32.3057       374700       0.642097
32.3143       374800       0.641975
32.3229       374900       0.641852
32.3315       375000       0.64173
32.3401       375100       0.641607
32.3488       375200       0.641485
32.3574       375300       0.641362
32.366       375400       0.64124
32.3746       375500       0.641118
32.3832       375600       0.640996
32.3919       375700       0.640874
32.4005       375800       0.640752
32.4091       375900       0.64063
32.4177       376000       0.640508
32.4264       376100       0.640386
32.435       376200       0.640264
32.4436       376300       0.640142
32.4522       376400       0.64002
32.4608       376500       0.639899
32.4695       376600       0.639777
32.4781       376700       0.639655
32.4867       376800       0.639534
32.4953       376900       0.639413
32.504       377000       0.639291
32.5126       377100       0.63917
32.5212       377200       0.639048
32.5298       377300       0.638927
32.5384       377400       0.638806
32.5471       377500       0.638685
32.5557       377600       0.638564
32.5643       377700       0.638443
32.5729       377800       0.638322
32.5815       377900       0.638201
32.5902       378000       0.63808
32.5988       378100       0.637959
32.6074       378200       0.637839
32.616       378300       0.637718
32.6247       378400       0.637597
32.6333       378500       0.637477
32.6419       378600       0.637356
32.6505       378700       0.637236
32.6591       378800       0.637116
32.6678       378900       0.636995
32.6764       379000       0.636875
32.685       379100       0.636755
32.6936       379200       0.636635
32.7023       379300       0.636514
32.7109       379400       0.636394
32.7195       379500       0.636274
32.7281       379600       0.636154
32.7367       379700       0.636035
32.7454       379800       0.635915
32.754       379900       0.635795
32.7626       380000       0.635675
32.7712       380100       0.635556
32.7798       380200       0.635436
32.7885       380300       0.635316
32.7971       380400       0.635197
32.8057       380500       0.635077
32.8143       380600       0.634958
32.823       380700       0.634839
32.8316       380800       0.634719
32.8402       380900       0.6346
32.8488       381000       0.634481
32.8574       381100       0.634362
32.8661       381200       0.634243
32.8747       381300       0.634124
32.8833       381400       0.634005
32.8919       381500       0.633886
32.9006       381600       0.633767
32.9092       381700       0.633648
32.9178       381800       0.633529
32.9264       381900       0.633411
32.935       382000       0.633292
32.9437       382100       0.633174
32.9523       382200       0.633055
32.9609       382300       0.632937
32.9695       382400       0.632818
32.9781       382500       0.6327
32.9868       382600       0.632581
32.9954       382700       0.632463
33.004       382800       0.632345
33.0126       382900       0.632227
33.0213       383000       0.632109
33.0299       383100       0.631991
33.0385       383200       0.631873
33.0471       383300       0.631755
33.0557       383400       0.631637
33.0644       383500       0.631519
33.073       383600       0.631401
33.0816       383700       0.631284
33.0902       383800       0.631166
33.0989       383900       0.631048
33.1075       384000       0.630931
33.1161       384100       0.630813
33.1247       384200       0.630696
33.1333       384300       0.630578
33.142       384400       0.630461
33.1506       384500       0.630344
33.1592       384600       0.630226
33.1678       384700       0.630109
33.1764       384800       0.629992
33.1851       384900       0.629875
33.1937       385000       0.629758
33.2023       385100       0.629641
33.2109       385200       0.629524
33.2196       385300       0.629407
33.2282       385400       0.62929
33.2368       385500       0.629174
33.2454       385600       0.629057
33.254       385700       0.62894
33.2627       385800       0.628824
33.2713       385900       0.628707
33.2799       386000       0.628591
33.2885       386100       0.628474
33.2972       386200       0.628358
33.3058       386300       0.628241
33.3144       386400       0.628125
33.323       386500       0.628009
33.3316       386600       0.627893
33.3403       386700       0.627776
33.3489       386800       0.62766
33.3575       386900       0.627544
33.3661       387000       0.627428
33.3747       387100       0.627312
33.3834       387200       0.627197
33.392       387300       0.627081
33.4006       387400       0.626965
33.4092       387500       0.626849
33.4179       387600       0.626734
33.4265       387700       0.626618
33.4351       387800       0.626502
33.4437       387900       0.626387
33.4523       388000       0.626271
33.461       388100       0.626156
33.4696       388200       0.626041
33.4782       388300       0.625925
33.4868       388400       0.62581
33.4955       388500       0.625695
33.5041       388600       0.62558
33.5127       388700       0.625465
33.5213       388800       0.62535
33.5299       388900       0.625235
33.5386       389000       0.62512
33.5472       389100       0.625005
33.5558       389200       0.62489
33.5644       389300       0.624775
33.573       389400       0.62466
33.5817       389500       0.624546
33.5903       389600       0.624431
33.5989       389700       0.624316
33.6075       389800       0.624202
33.6162       389900       0.624087
33.6248       390000       0.623973
33.6334       390100       0.623859
33.642       390200       0.623744
33.6506       390300       0.62363
33.6593       390400       0.623516
33.6679       390500       0.623402
33.6765       390600       0.623287
33.6851       390700       0.623173
33.6938       390800       0.623059
33.7024       390900       0.622945
33.711       391000       0.622831
33.7196       391100       0.622718
33.7282       391200       0.622604
33.7369       391300       0.62249
33.7455       391400       0.622376
33.7541       391500       0.622263
33.7627       391600       0.622149
33.7713       391700       0.622035
33.78       391800       0.621922
33.7886       391900       0.621808
33.7972       392000       0.621695
33.8058       392100       0.621582
33.8145       392200       0.621468
33.8231       392300       0.621355
33.8317       392400       0.621242
33.8403       392500       0.621129
33.8489       392600       0.621016
33.8576       392700       0.620903
33.8662       392800       0.62079
33.8748       392900       0.620677
33.8834       393000       0.620564
33.8921       393100       0.620451
33.9007       393200       0.620338
33.9093       393300       0.620225
33.9179       393400       0.620112
33.9265       393500       0.62
33.9352       393600       0.619887
33.9438       393700       0.619775
33.9524       393800       0.619662
33.961       393900       0.61955
33.9696       394000       0.619437
33.9783       394100       0.619325
33.9869       394200       0.619213
33.9955       394300       0.6191
34.0041       394400       0.618988
34.0128       394500       0.618876
34.0214       394600       0.618764
34.03       394700       0.618652
34.0386       394800       0.61854
34.0472       394900       0.618428
34.0559       395000       0.618316
34.0645       395100       0.618204
34.0731       395200       0.618092
34.0817       395300       0.61798
34.0904       395400       0.617869
34.099       395500       0.617757
34.1076       395600       0.617645
34.1162       395700       0.617534
34.1248       395800       0.617422
34.1335       395900       0.617311
34.1421       396000       0.617199
34.1507       396100       0.617088
34.1593       396200       0.616976
34.1679       396300       0.616865
34.1766       396400       0.616754
34.1852       396500       0.616643
34.1938       396600       0.616532
34.2024       396700       0.616421
34.2111       396800       0.616309
34.2197       396900       0.616199
34.2283       397000       0.616088
34.2369       397100       0.615977
34.2455       397200       0.615866
34.2542       397300       0.615755
34.2628       397400       0.615644
34.2714       397500       0.615534
34.28       397600       0.615423
34.2887       397700       0.615312
34.2973       397800       0.615202
34.3059       397900       0.615091
34.3145       398000       0.614981
34.3231       398100       0.61487
34.3318       398200       0.61476
34.3404       398300       0.61465
34.349       398400       0.614539
34.3576       398500       0.614429
34.3662       398600       0.614319
34.3749       398700       0.614209
34.3835       398800       0.614099
34.3921       398900       0.613989
34.4007       399000       0.613879
34.4094       399100       0.613769
34.418       399200       0.613659
34.4266       399300       0.613549
34.4352       399400       0.613439
34.4438       399500       0.61333
34.4525       399600       0.61322
34.4611       399700       0.61311
34.4697       399800       0.613001
34.4783       399900       0.612891
34.487       400000       0.612782
