; The collision integrals Q_{i,j}^{11} are exponential fit function obtained from 
; Transport properties of high-temperature Jupiter atmosphere components, D. Bruno, C. Catalfamo, M. Capitelli, G. Colonna, O. De Pascale et al., Phys. Plasmas 17, 112315 (2010), doi: 10.1063/1.3495980, Published by the American Institute of Physics
; 
; 
; To obtain these collision integrals, the original data (transport cross section Q^l_{i,j} or elastic collision differential cross section) are obtained from:
; 1) Atomic and Plasma-material Interaction data for fusion, vol 8, international atomic energy agency, 1998,
; 
; 2) Predrag S Krstic and David R Schultz 1999 J. Phys. B: At. Mol. Opt. Phys. 32 , 3485
; 
; 1 atomic unit of square distance = 2.80e-17 cm^2
; 1eV = 11604K

2.80e-17


;        E             T             Q11
;       (eV)         (K)         (a.u.)

0.0862174       1000       419.68
0.0948391       1100       414.027
0.103461       1200       408.916
0.112083       1300       404.249
0.120704       1400       399.952
0.129326       1500       395.971
0.137948       1600       392.26
0.14657       1700       388.784
0.155191       1800       385.515
0.163813       1900       382.43
0.172435       2000       379.509
0.181056       2100       376.735
0.189678       2200       374.095
0.1983       2300       371.577
0.206922       2400       369.17
0.215543       2500       366.865
0.224165       2600       364.655
0.232787       2700       362.532
0.241409       2800       360.49
0.25003       2900       358.525
0.258652       3000       356.63
0.267274       3100       354.801
0.275896       3200       353.035
0.284517       3300       351.327
0.293139       3400       349.675
0.301761       3500       348.075
0.310383       3600       346.524
0.319004       3700       345.02
0.327626       3800       343.56
0.336248       3900       342.143
0.34487       4000       340.766
0.353491       4100       339.426
0.362113       4200       338.124
0.370735       4300       336.856
0.379356       4400       335.621
0.387978       4500       334.418
0.3966       4600       333.246
0.405222       4700       332.103
0.413843       4800       330.988
0.422465       4900       329.899
0.431087       5000       328.836
0.439709       5100       327.798
0.44833       5200       326.784
0.456952       5300       325.793
0.465574       5400       324.823
0.474196       5500       323.875
0.482817       5600       322.948
0.491439       5700       322.04
0.500061       5800       321.151
0.508683       5900       320.28
0.517304       6000       319.427
0.525926       6100       318.592
0.534548       6200       317.772
0.543169       6300       316.969
0.551791       6400       316.181
0.560413       6500       315.409
0.569035       6600       314.65
0.577656       6700       313.906
0.586278       6800       313.176
0.5949       6900       312.458
0.603522       7000       311.754
0.612143       7100       311.061
0.620765       7200       310.381
0.629387       7300       309.713
0.638009       7400       309.056
0.64663       7500       308.409
0.655252       7600       307.774
0.663874       7700       307.149
0.672496       7800       306.534
0.681117       7900       305.929
0.689739       8000       305.333
0.698361       8100       304.747
0.706983       8200       304.17
0.715604       8300       303.602
0.724226       8400       303.042
0.732848       8500       302.491
0.741469       8600       301.947
0.750091       8700       301.412
0.758713       8800       300.884
0.767335       8900       300.364
0.775956       9000       299.852
0.784578       9100       299.346
0.7932       9200       298.848
0.801822       9300       298.356
0.810443       9400       297.871
0.819065       9500       297.392
0.827687       9600       296.92
0.836309       9700       296.454
0.84493       9800       295.994
0.853552       9900       295.54
0.862174       10000       295.092
0.870796       10100       294.65
0.879417       10200       294.213
0.888039       10300       293.781
0.896661       10400       293.355
0.905282       10500       292.934
0.913904       10600       292.518
0.922526       10700       292.107
0.931148       10800       291.701
0.939769       10900       291.299
0.948391       11000       290.902
0.957013       11100       290.51
0.965635       11200       290.122
0.974256       11300       289.739
0.982878       11400       289.359
0.9915       11500       288.985
1.00012       11600       288.614
1.00874       11700       288.247
1.01737       11800       287.884
1.02599       11900       287.525
1.03461       12000       287.17
1.04323       12100       286.818
1.05185       12200       286.47
1.06047       12300       286.126
1.0691       12400       285.785
1.07772       12500       285.448
1.08634       12600       285.114
1.09496       12700       284.784
1.10358       12800       284.456
1.1122       12900       284.132
1.12083       13000       283.811
1.12945       13100       283.494
1.13807       13200       283.179
1.14669       13300       282.867
1.15531       13400       282.558
1.16393       13500       282.252
1.17256       13600       281.949
1.18118       13700       281.648
1.1898       13800       281.351
1.19842       13900       281.056
1.20704       14000       280.764
1.21567       14100       280.474
1.22429       14200       280.187
1.23291       14300       279.902
1.24153       14400       279.62
1.25015       14500       279.34
1.25877       14600       279.063
1.2674       14700       278.788
1.27602       14800       278.515
1.28464       14900       278.245
1.29326       15000       277.977
1.30188       15100       277.711
1.3105       15200       277.447
1.31913       15300       277.186
1.32775       15400       276.926
1.33637       15500       276.669
1.34499       15600       276.413
1.35361       15700       276.16
1.36223       15800       275.909
1.37086       15900       275.659
1.37948       16000       275.412
1.3881       16100       275.166
1.39672       16200       274.923
1.40534       16300       274.681
1.41397       16400       274.441
1.42259       16500       274.203
1.43121       16600       273.967
1.43983       16700       273.732
1.44845       16800       273.499
1.45707       16900       273.268
1.4657       17000       273.038
1.47432       17100       272.81
1.48294       17200       272.584
1.49156       17300       272.359
1.50018       17400       272.136
1.5088       17500       271.915
1.51743       17600       271.695
1.52605       17700       271.476
1.53467       17800       271.259
1.54329       17900       271.044
1.55191       18000       270.83
1.56053       18100       270.617
1.56916       18200       270.406
1.57778       18300       270.196
1.5864       18400       269.988
1.59502       18500       269.781
1.60364       18600       269.576
1.61227       18700       269.371
1.62089       18800       269.168
1.62951       18900       268.967
1.63813       19000       268.766
1.64675       19100       268.567
1.65537       19200       268.369
1.664       19300       268.173
1.67262       19400       267.978
1.68124       19500       267.783
1.68986       19600       267.59
1.69848       19700       267.399
1.7071       19800       267.208
1.71573       19900       267.019
1.72435       20000       266.83
1.73297       20100       266.643
1.74159       20200       266.457
1.75021       20300       266.272
1.75883       20400       266.089
1.76746       20500       265.906
1.77608       20600       265.724
1.7847       20700       265.543
1.79332       20800       265.364
1.80194       20900       265.185
1.81056       21000       265.008
1.81919       21100       264.831
1.82781       21200       264.656
1.83643       21300       264.481
1.84505       21400       264.308
1.85367       21500       264.135
1.8623       21600       263.963
1.87092       21700       263.793
1.87954       21800       263.623
1.88816       21900       263.454
1.89678       22000       263.286
1.9054       22100       263.119
1.91403       22200       262.953
1.92265       22300       262.788
1.93127       22400       262.624
1.93989       22500       262.46
1.94851       22600       262.297
1.95713       22700       262.136
1.96576       22800       261.975
1.97438       22900       261.815
1.983       23000       261.655
1.99162       23100       261.497
2.00024       23200       261.339
2.00886       23300       261.182
2.01749       23400       261.026
2.02611       23500       260.871
2.03473       23600       260.717
2.04335       23700       260.563
2.05197       23800       260.41
2.0606       23900       260.258
2.06922       24000       260.106
2.07784       24100       259.956
2.08646       24200       259.806
2.09508       24300       259.657
2.1037       24400       259.508
2.11233       24500       259.36
2.12095       24600       259.213
2.12957       24700       259.067
2.13819       24800       258.921
2.14681       24900       258.776
2.15543       25000       258.632
2.16406       25100       258.488
2.17268       25200       258.345
2.1813       25300       258.203
2.18992       25400       258.061
2.19854       25500       257.92
2.20716       25600       257.78
2.21579       25700       257.64
2.22441       25800       257.501
2.23303       25900       257.362
2.24165       26000       257.225
2.25027       26100       257.087
2.2589       26200       256.951
2.26752       26300       256.815
2.27614       26400       256.679
2.28476       26500       256.545
2.29338       26600       256.41
2.302       26700       256.277
2.31063       26800       256.144
2.31925       26900       256.011
2.32787       27000       255.879
2.33649       27100       255.748
2.34511       27200       255.617
2.35373       27300       255.487
2.36236       27400       255.357
2.37098       27500       255.228
2.3796       27600       255.1
2.38822       27700       254.972
2.39684       27800       254.844
2.40546       27900       254.717
2.41409       28000       254.591
2.42271       28100       254.465
2.43133       28200       254.339
2.43995       28300       254.215
2.44857       28400       254.09
2.4572       28500       253.966
2.46582       28600       253.843
2.47444       28700       253.72
2.48306       28800       253.598
2.49168       28900       253.476
2.5003       29000       253.354
2.50893       29100       253.233
2.51755       29200       253.113
2.52617       29300       252.993
2.53479       29400       252.873
2.54341       29500       252.754
2.55203       29600       252.636
2.56066       29700       252.518
2.56928       29800       252.4
2.5779       29900       252.283
2.58652       30000       252.166
2.59514       30100       252.05
2.60376       30200       251.934
2.61239       30300       251.819
2.62101       30400       251.704
2.62963       30500       251.589
2.63825       30600       251.475
2.64687       30700       251.361
2.6555       30800       251.248
2.66412       30900       251.135
2.67274       31000       251.023
2.68136       31100       250.911
2.68998       31200       250.799
2.6986       31300       250.688
2.70723       31400       250.577
2.71585       31500       250.467
2.72447       31600       250.357
2.73309       31700       250.247
2.74171       31800       250.138
2.75033       31900       250.029
2.75896       32000       249.921
2.76758       32100       249.813
2.7762       32200       249.705
2.78482       32300       249.598
2.79344       32400       249.491
2.80206       32500       249.384
2.81069       32600       249.278
2.81931       32700       249.172
2.82793       32800       249.067
2.83655       32900       248.962
2.84517       33000       248.857
2.8538       33100       248.753
2.86242       33200       248.649
2.87104       33300       248.545
2.87966       33400       248.442
2.88828       33500       248.339
2.8969       33600       248.237
2.90553       33700       248.135
2.91415       33800       248.033
2.92277       33900       247.931
2.93139       34000       247.83
2.94001       34100       247.729
2.94863       34200       247.629
2.95726       34300       247.528
2.96588       34400       247.429
2.9745       34500       247.329
2.98312       34600       247.23
2.99174       34700       247.131
3.00036       34800       247.033
3.00899       34900       246.934
3.01761       35000       246.836
3.02623       35100       246.739
3.03485       35200       246.642
3.04347       35300       246.545
3.0521       35400       246.448
3.06072       35500       246.352
3.06934       35600       246.256
3.07796       35700       246.16
3.08658       35800       246.064
3.0952       35900       245.969
3.10383       36000       245.874
3.11245       36100       245.78
3.12107       36200       245.686
3.12969       36300       245.592
3.13831       36400       245.498
3.14693       36500       245.405
3.15556       36600       245.312
3.16418       36700       245.219
3.1728       36800       245.126
3.18142       36900       245.034
3.19004       37000       244.942
3.19866       37100       244.851
3.20729       37200       244.759
3.21591       37300       244.668
3.22453       37400       244.577
3.23315       37500       244.487
3.24177       37600       244.397
3.2504       37700       244.307
3.25902       37800       244.217
3.26764       37900       244.127
3.27626       38000       244.038
3.28488       38100       243.949
3.2935       38200       243.86
3.30213       38300       243.772
3.31075       38400       243.684
3.31937       38500       243.596
3.32799       38600       243.508
3.33661       38700       243.421
3.34523       38800       243.334
3.35386       38900       243.247
3.36248       39000       243.16
3.3711       39100       243.074
3.37972       39200       242.988
3.38834       39300       242.902
3.39696       39400       242.816
3.40559       39500       242.731
3.41421       39600       242.646
3.42283       39700       242.561
3.43145       39800       242.476
3.44007       39900       242.391
3.4487       40000       242.307
3.45732       40100       242.223
3.46594       40200       242.14
3.47456       40300       242.056
3.48318       40400       241.973
3.4918       40500       241.89
3.50043       40600       241.807
3.50905       40700       241.724
3.51767       40800       241.642
3.52629       40900       241.56
3.53491       41000       241.478
3.54353       41100       241.396
3.55216       41200       241.315
3.56078       41300       241.233
3.5694       41400       241.152
3.57802       41500       241.072
3.58664       41600       240.991
3.59526       41700       240.911
3.60389       41800       240.831
3.61251       41900       240.751
3.62113       42000       240.671
3.62975       42100       240.591
3.63837       42200       240.512
3.647       42300       240.433
3.65562       42400       240.354
3.66424       42500       240.275
3.67286       42600       240.197
3.68148       42700       240.119
3.6901       42800       240.04
3.69873       42900       239.963
3.70735       43000       239.885
3.71597       43100       239.807
3.72459       43200       239.73
3.73321       43300       239.653
3.74183       43400       239.576
3.75046       43500       239.5
3.75908       43600       239.423
3.7677       43700       239.347
3.77632       43800       239.271
3.78494       43900       239.195
3.79356       44000       239.119
3.80219       44100       239.044
3.81081       44200       238.968
3.81943       44300       238.893
3.82805       44400       238.818
3.83667       44500       238.743
3.8453       44600       238.669
3.85392       44700       238.595
3.86254       44800       238.52
3.87116       44900       238.446
3.87978       45000       238.372
3.8884       45100       238.299
3.89703       45200       238.225
3.90565       45300       238.152
3.91427       45400       238.079
3.92289       45500       238.006
3.93151       45600       237.933
3.94013       45700       237.861
3.94876       45800       237.788
3.95738       45900       237.716
3.966       46000       237.644
3.97462       46100       237.572
3.98324       46200       237.5
3.99186       46300       237.429
4.00049       46400       237.358
4.00911       46500       237.286
4.01773       46600       237.215
4.02635       46700       237.144
4.03497       46800       237.074
4.0436       46900       237.003
4.05222       47000       236.933
4.06084       47100       236.863
4.06946       47200       236.793
4.07808       47300       236.723
4.0867       47400       236.653
4.09533       47500       236.584
4.10395       47600       236.514
4.11257       47700       236.445
4.12119       47800       236.376
4.12981       47900       236.307
4.13843       48000       236.238
4.14706       48100       236.17
4.15568       48200       236.101
4.1643       48300       236.033
4.17292       48400       235.965
4.18154       48500       235.897
4.19016       48600       235.829
4.19879       48700       235.762
4.20741       48800       235.694
4.21603       48900       235.627
4.22465       49000       235.56
4.23327       49100       235.493
4.2419       49200       235.426
4.25052       49300       235.359
4.25914       49400       235.293
4.26776       49500       235.226
4.27638       49600       235.16
4.285       49700       235.094
4.29363       49800       235.028
4.30225       49900       234.962
4.31087       50000       234.896
4.31949       50100       234.831
4.32811       50200       234.765
4.33673       50300       234.7
4.34536       50400       234.635
4.35398       50500       234.57
4.3626       50600       234.505
4.37122       50700       234.44
4.37984       50800       234.376
4.38846       50900       234.311
4.39709       51000       234.247
4.40571       51100       234.183
4.41433       51200       234.119
4.42295       51300       234.055
4.43157       51400       233.991
4.4402       51500       233.928
4.44882       51600       233.864
4.45744       51700       233.801
4.46606       51800       233.738
4.47468       51900       233.675
4.4833       52000       233.612
4.49193       52100       233.549
4.50055       52200       233.487
4.50917       52300       233.424
4.51779       52400       233.362
4.52641       52500       233.299
4.53503       52600       233.237
4.54366       52700       233.175
4.55228       52800       233.113
4.5609       52900       233.052
4.56952       53000       232.99
4.57814       53100       232.929
4.58676       53200       232.867
4.59539       53300       232.806
4.60401       53400       232.745
4.61263       53500       232.684
4.62125       53600       232.623
4.62987       53700       232.562
4.6385       53800       232.502
4.64712       53900       232.441
4.65574       54000       232.381
4.66436       54100       232.321
4.67298       54200       232.261
4.6816       54300       232.201
4.69023       54400       232.141
4.69885       54500       232.081
4.70747       54600       232.022
4.71609       54700       231.962
4.72471       54800       231.903
4.73333       54900       231.843
4.74196       55000       231.784
4.75058       55100       231.725
4.7592       55200       231.666
4.76782       55300       231.608
4.77644       55400       231.549
4.78506       55500       231.49
4.79369       55600       231.432
4.80231       55700       231.374
4.81093       55800       231.315
4.81955       55900       231.257
4.82817       56000       231.199
4.8368       56100       231.141
4.84542       56200       231.084
4.85404       56300       231.026
4.86266       56400       230.969
4.87128       56500       230.911
4.8799       56600       230.854
4.88853       56700       230.797
4.89715       56800       230.74
4.90577       56900       230.683
4.91439       57000       230.626
4.92301       57100       230.569
4.93163       57200       230.512
4.94026       57300       230.456
4.94888       57400       230.399
4.9575       57500       230.343
4.96612       57600       230.287
4.97474       57700       230.231
4.98336       57800       230.175
4.99199       57900       230.119
5.00061       58000       230.063
5.00923       58100       230.007
5.01785       58200       229.952
5.02647       58300       229.896
5.03509       58400       229.841
5.04372       58500       229.786
5.05234       58600       229.731
5.06096       58700       229.675
5.06958       58800       229.621
5.0782       58900       229.566
5.08683       59000       229.511
5.09545       59100       229.456
5.10407       59200       229.402
5.11269       59300       229.347
5.12131       59400       229.293
5.12993       59500       229.239
5.13856       59600       229.185
5.14718       59700       229.131
5.1558       59800       229.077
5.16442       59900       229.023
5.17304       60000       228.969
5.18166       60100       228.915
5.19029       60200       228.862
5.19891       60300       228.808
5.20753       60400       228.755
5.21615       60500       228.702
5.22477       60600       228.649
5.23339       60700       228.595
5.24202       60800       228.542
5.25064       60900       228.49
5.25926       61000       228.437
5.26788       61100       228.384
5.2765       61200       228.332
5.28513       61300       228.279
5.29375       61400       228.227
5.30237       61500       228.174
5.31099       61600       228.122
5.31961       61700       228.07
5.32823       61800       228.018
5.33686       61900       227.966
5.34548       62000       227.914
5.3541       62100       227.862
5.36272       62200       227.811
5.37134       62300       227.759
5.37996       62400       227.708
5.38859       62500       227.656
5.39721       62600       227.605
5.40583       62700       227.554
5.41445       62800       227.503
5.42307       62900       227.451
5.43169       63000       227.401
5.44032       63100       227.35
5.44894       63200       227.299
5.45756       63300       227.248
5.46618       63400       227.198
5.4748       63500       227.147
5.48343       63600       227.097
5.49205       63700       227.046
5.50067       63800       226.996
5.50929       63900       226.946
5.51791       64000       226.896
5.52653       64100       226.846
5.53516       64200       226.796
5.54378       64300       226.746
5.5524       64400       226.696
5.56102       64500       226.647
5.56964       64600       226.597
5.57826       64700       226.548
5.58689       64800       226.498
5.59551       64900       226.449
5.60413       65000       226.4
5.61275       65100       226.35
5.62137       65200       226.301
5.62999       65300       226.252
5.63862       65400       226.203
5.64724       65500       226.155
5.65586       65600       226.106
5.66448       65700       226.057
5.6731       65800       226.009
5.68173       65900       225.96
5.69035       66000       225.912
5.69897       66100       225.863
5.70759       66200       225.815
5.71621       66300       225.767
5.72483       66400       225.719
5.73346       66500       225.671
5.74208       66600       225.623
5.7507       66700       225.575
5.75932       66800       225.527
5.76794       66900       225.479
5.77656       67000       225.432
5.78519       67100       225.384
5.79381       67200       225.337
5.80243       67300       225.289
5.81105       67400       225.242
5.81967       67500       225.195
5.82829       67600       225.148
5.83692       67700       225.1
5.84554       67800       225.053
5.85416       67900       225.006
5.86278       68000       224.96
5.8714       68100       224.913
5.88003       68200       224.866
5.88865       68300       224.819
5.89727       68400       224.773
5.90589       68500       224.726
5.91451       68600       224.68
5.92313       68700       224.634
5.93176       68800       224.587
5.94038       68900       224.541
5.949       69000       224.495
5.95762       69100       224.449
5.96624       69200       224.403
5.97486       69300       224.357
5.98349       69400       224.311
5.99211       69500       224.265
6.00073       69600       224.22
6.00935       69700       224.174
6.01797       69800       224.128
6.02659       69900       224.083
6.03522       70000       224.038
6.04384       70100       223.992
6.05246       70200       223.947
6.06108       70300       223.902
6.0697       70400       223.857
6.07833       70500       223.812
6.08695       70600       223.767
6.09557       70700       223.722
6.10419       70800       223.677
6.11281       70900       223.632
6.12143       71000       223.587
6.13006       71100       223.543
6.13868       71200       223.498
6.1473       71300       223.454
6.15592       71400       223.409
6.16454       71500       223.365
6.17316       71600       223.32
6.18179       71700       223.276
6.19041       71800       223.232
6.19903       71900       223.188
6.20765       72000       223.144
6.21627       72100       223.1
6.22489       72200       223.056
6.23352       72300       223.012
6.24214       72400       222.968
6.25076       72500       222.925
6.25938       72600       222.881
6.268       72700       222.837
6.27663       72800       222.794
6.28525       72900       222.75
6.29387       73000       222.707
6.30249       73100       222.664
6.31111       73200       222.62
6.31973       73300       222.577
6.32836       73400       222.534
6.33698       73500       222.491
6.3456       73600       222.448
6.35422       73700       222.405
6.36284       73800       222.362
6.37146       73900       222.319
6.38009       74000       222.277
6.38871       74100       222.234
6.39733       74200       222.191
6.40595       74300       222.149
6.41457       74400       222.106
6.42319       74500       222.064
6.43182       74600       222.021
6.44044       74700       221.979
6.44906       74800       221.937
6.45768       74900       221.895
6.4663       75000       221.853
6.47493       75100       221.811
6.48355       75200       221.769
6.49217       75300       221.727
6.50079       75400       221.685
6.50941       75500       221.643
6.51803       75600       221.601
6.52666       75700       221.559
6.53528       75800       221.518
6.5439       75900       221.476
6.55252       76000       221.435
6.56114       76100       221.393
6.56976       76200       221.352
6.57839       76300       221.31
6.58701       76400       221.269
6.59563       76500       221.228
6.60425       76600       221.187
6.61287       76700       221.146
6.62149       76800       221.105
6.63012       76900       221.064
6.63874       77000       221.023
6.64736       77100       220.982
6.65598       77200       220.941
6.6646       77300       220.9
6.67323       77400       220.859
6.68185       77500       220.819
6.69047       77600       220.778
6.69909       77700       220.738
6.70771       77800       220.697
6.71633       77900       220.657
6.72496       78000       220.616
6.73358       78100       220.576
6.7422       78200       220.536
6.75082       78300       220.496
6.75944       78400       220.455
6.76806       78500       220.415
6.77669       78600       220.375
6.78531       78700       220.335
6.79393       78800       220.295
6.80255       78900       220.256
6.81117       79000       220.216
6.81979       79100       220.176
6.82842       79200       220.136
6.83704       79300       220.097
6.84566       79400       220.057
6.85428       79500       220.017
6.8629       79600       219.978
6.87153       79700       219.939
6.88015       79800       219.899
6.88877       79900       219.86
6.89739       80000       219.821
6.90601       80100       219.781
6.91463       80200       219.742
6.92326       80300       219.703
6.93188       80400       219.664
6.9405       80500       219.625
6.94912       80600       219.586
6.95774       80700       219.547
6.96636       80800       219.508
6.97499       80900       219.469
6.98361       81000       219.431
6.99223       81100       219.392
7.00085       81200       219.353
7.00947       81300       219.315
7.01809       81400       219.276
7.02672       81500       219.238
7.03534       81600       219.199
7.04396       81700       219.161
7.05258       81800       219.123
7.0612       81900       219.084
7.06983       82000       219.046
7.07845       82100       219.008
7.08707       82200       218.97
7.09569       82300       218.932
7.10431       82400       218.894
7.11293       82500       218.856
7.12156       82600       218.818
7.13018       82700       218.78
7.1388       82800       218.742
7.14742       82900       218.704
7.15604       83000       218.667
7.16466       83100       218.629
7.17329       83200       218.591
7.18191       83300       218.554
7.19053       83400       218.516
7.19915       83500       218.479
7.20777       83600       218.441
7.21639       83700       218.404
7.22502       83800       218.366
7.23364       83900       218.329
7.24226       84000       218.292
7.25088       84100       218.255
7.2595       84200       218.217
7.26813       84300       218.18
7.27675       84400       218.143
7.28537       84500       218.106
7.29399       84600       218.069
7.30261       84700       218.032
7.31123       84800       217.996
7.31986       84900       217.959
7.32848       85000       217.922
7.3371       85100       217.885
7.34572       85200       217.849
7.35434       85300       217.812
7.36296       85400       217.775
7.37159       85500       217.739
7.38021       85600       217.702
7.38883       85700       217.666
7.39745       85800       217.629
7.40607       85900       217.593
7.41469       86000       217.557
7.42332       86100       217.521
7.43194       86200       217.484
7.44056       86300       217.448
7.44918       86400       217.412
7.4578       86500       217.376
7.46643       86600       217.34
7.47505       86700       217.304
7.48367       86800       217.268
7.49229       86900       217.232
7.50091       87000       217.196
7.50953       87100       217.16
7.51816       87200       217.125
7.52678       87300       217.089
7.5354       87400       217.053
7.54402       87500       217.018
7.55264       87600       216.982
7.56126       87700       216.946
7.56989       87800       216.911
7.57851       87900       216.876
7.58713       88000       216.84
7.59575       88100       216.805
7.60437       88200       216.769
7.61299       88300       216.734
7.62162       88400       216.699
7.63024       88500       216.664
7.63886       88600       216.629
7.64748       88700       216.593
7.6561       88800       216.558
7.66473       88900       216.523
7.67335       89000       216.488
7.68197       89100       216.453
7.69059       89200       216.419
7.69921       89300       216.384
7.70783       89400       216.349
7.71646       89500       216.314
7.72508       89600       216.279
7.7337       89700       216.245
7.74232       89800       216.21
7.75094       89900       216.175
7.75956       90000       216.141
7.76819       90100       216.106
7.77681       90200       216.072
7.78543       90300       216.037
7.79405       90400       216.003
7.80267       90500       215.969
7.81129       90600       215.934
7.81992       90700       215.9
7.82854       90800       215.866
7.83716       90900       215.832
7.84578       91000       215.797
7.8544       91100       215.763
7.86303       91200       215.729
7.87165       91300       215.695
7.88027       91400       215.661
7.88889       91500       215.627
7.89751       91600       215.593
7.90613       91700       215.56
7.91476       91800       215.526
7.92338       91900       215.492
7.932       92000       215.458
7.94062       92100       215.424
7.94924       92200       215.391
7.95786       92300       215.357
7.96649       92400       215.324
7.97511       92500       215.29
7.98373       92600       215.257
7.99235       92700       215.223
8.00097       92800       215.19
8.00959       92900       215.156
8.01822       93000       215.123
8.02684       93100       215.09
8.03546       93200       215.056
8.04408       93300       215.023
8.0527       93400       214.99
8.06133       93500       214.957
8.06995       93600       214.924
8.07857       93700       214.89
8.08719       93800       214.857
8.09581       93900       214.824
8.10443       94000       214.791
8.11306       94100       214.759
8.12168       94200       214.726
8.1303       94300       214.693
8.13892       94400       214.66
8.14754       94500       214.627
8.15616       94600       214.594
8.16479       94700       214.562
8.17341       94800       214.529
8.18203       94900       214.496
8.19065       95000       214.464
8.19927       95100       214.431
8.20789       95200       214.399
8.21652       95300       214.366
8.22514       95400       214.334
8.23376       95500       214.301
8.24238       95600       214.269
8.251       95700       214.237
8.25963       95800       214.204
8.26825       95900       214.172
8.27687       96000       214.14
8.28549       96100       214.108
8.29411       96200       214.076
8.30273       96300       214.043
8.31136       96400       214.011
8.31998       96500       213.979
8.3286       96600       213.947
8.33722       96700       213.915
8.34584       96800       213.883
8.35446       96900       213.851
8.36309       97000       213.82
8.37171       97100       213.788
8.38033       97200       213.756
8.38895       97300       213.724
8.39757       97400       213.692
8.40619       97500       213.661
8.41482       97600       213.629
8.42344       97700       213.597
8.43206       97800       213.566
8.44068       97900       213.534
8.4493       98000       213.503
8.45792       98100       213.471
8.46655       98200       213.44
8.47517       98300       213.408
8.48379       98400       213.377
8.49241       98500       213.346
8.50103       98600       213.314
8.50966       98700       213.283
8.51828       98800       213.252
8.5269       98900       213.221
8.53552       99000       213.19
8.54414       99100       213.158
8.55276       99200       213.127
8.56139       99300       213.096
8.57001       99400       213.065
8.57863       99500       213.034
8.58725       99600       213.003
8.59587       99700       212.972
8.60449       99800       212.941
8.61312       99900       212.911
8.62174       100000       212.88
8.63036       100100       212.849
8.63898       100200       212.818
8.6476       100300       212.787
8.65622       100400       212.757
8.66485       100500       212.726
8.67347       100600       212.695
8.68209       100700       212.665
8.69071       100800       212.634
8.69933       100900       212.604
8.70796       101000       212.573
8.71658       101100       212.543
8.7252       101200       212.512
8.73382       101300       212.482
8.74244       101400       212.451
8.75106       101500       212.421
8.75969       101600       212.391
8.76831       101700       212.361
8.77693       101800       212.33
8.78555       101900       212.3
8.79417       102000       212.27
8.80279       102100       212.24
8.81142       102200       212.21
8.82004       102300       212.18
8.82866       102400       212.149
8.83728       102500       212.119
8.8459       102600       212.089
8.85452       102700       212.059
8.86315       102800       212.03
8.87177       102900       212
8.88039       103000       211.97
8.88901       103100       211.94
8.89763       103200       211.91
8.90626       103300       211.88
8.91488       103400       211.851
8.9235       103500       211.821
8.93212       103600       211.791
8.94074       103700       211.762
8.94936       103800       211.732
8.95799       103900       211.702
8.96661       104000       211.673
8.97523       104100       211.643
8.98385       104200       211.614
8.99247       104300       211.584
9.00109       104400       211.555
9.00972       104500       211.526
9.01834       104600       211.496
9.02696       104700       211.467
9.03558       104800       211.438
9.0442       104900       211.408
9.05282       105000       211.379
9.06145       105100       211.35
9.07007       105200       211.321
9.07869       105300       211.291
9.08731       105400       211.262
9.09593       105500       211.233
9.10456       105600       211.204
9.11318       105700       211.175
9.1218       105800       211.146
9.13042       105900       211.117
9.13904       106000       211.088
9.14766       106100       211.059
9.15629       106200       211.03
9.16491       106300       211.001
9.17353       106400       210.973
9.18215       106500       210.944
9.19077       106600       210.915
9.19939       106700       210.886
9.20802       106800       210.858
9.21664       106900       210.829
9.22526       107000       210.8
9.23388       107100       210.772
9.2425       107200       210.743
9.25112       107300       210.714
9.25975       107400       210.686
9.26837       107500       210.657
9.27699       107600       210.629
9.28561       107700       210.6
9.29423       107800       210.572
9.30286       107900       210.544
9.31148       108000       210.515
9.3201       108100       210.487
9.32872       108200       210.459
9.33734       108300       210.43
9.34596       108400       210.402
9.35459       108500       210.374
9.36321       108600       210.346
9.37183       108700       210.317
9.38045       108800       210.289
9.38907       108900       210.261
9.39769       109000       210.233
9.40632       109100       210.205
9.41494       109200       210.177
9.42356       109300       210.149
9.43218       109400       210.121
9.4408       109500       210.093
9.44942       109600       210.065
9.45805       109700       210.037
9.46667       109800       210.009
9.47529       109900       209.981
9.48391       110000       209.954
9.49253       110100       209.926
9.50116       110200       209.898
9.50978       110300       209.87
9.5184       110400       209.843
9.52702       110500       209.815
9.53564       110600       209.787
9.54426       110700       209.76
9.55289       110800       209.732
9.56151       110900       209.705
9.57013       111000       209.677
9.57875       111100       209.65
9.58737       111200       209.622
9.59599       111300       209.595
9.60462       111400       209.567
9.61324       111500       209.54
9.62186       111600       209.512
9.63048       111700       209.485
9.6391       111800       209.458
9.64772       111900       209.43
9.65635       112000       209.403
9.66497       112100       209.376
9.67359       112200       209.349
9.68221       112300       209.321
9.69083       112400       209.294
9.69946       112500       209.267
9.70808       112600       209.24
9.7167       112700       209.213
9.72532       112800       209.186
9.73394       112900       209.159
9.74256       113000       209.132
9.75119       113100       209.105
9.75981       113200       209.078
9.76843       113300       209.051
9.77705       113400       209.024
9.78567       113500       208.997
9.79429       113600       208.97
9.80292       113700       208.943
9.81154       113800       208.916
9.82016       113900       208.89
9.82878       114000       208.863
9.8374       114100       208.836
9.84602       114200       208.809
9.85465       114300       208.783
9.86327       114400       208.756
9.87189       114500       208.729
9.88051       114600       208.703
9.88913       114700       208.676
9.89776       114800       208.65
9.90638       114900       208.623
9.915       115000       208.597
9.92362       115100       208.57
9.93224       115200       208.544
9.94086       115300       208.517
9.94949       115400       208.491
9.95811       115500       208.465
9.96673       115600       208.438
9.97535       115700       208.412
9.98397       115800       208.385
9.99259       115900       208.359
10.0012       116000       208.333
10.0098       116100       208.307
10.0185       116200       208.28
10.0271       116300       208.254
10.0357       116400       208.228
10.0443       116500       208.202
10.0529       116600       208.176
10.0616       116700       208.15
10.0702       116800       208.124
10.0788       116900       208.098
10.0874       117000       208.072
10.0961       117100       208.046
10.1047       117200       208.02
10.1133       117300       207.994
10.1219       117400       207.968
10.1305       117500       207.942
10.1392       117600       207.916
10.1478       117700       207.89
10.1564       117800       207.864
10.165       117900       207.839
10.1737       118000       207.813
10.1823       118100       207.787
10.1909       118200       207.761
10.1995       118300       207.736
10.2081       118400       207.71
10.2168       118500       207.684
10.2254       118600       207.659
10.234       118700       207.633
10.2426       118800       207.607
10.2512       118900       207.582
10.2599       119000       207.556
10.2685       119100       207.531
10.2771       119200       207.505
10.2857       119300       207.48
10.2944       119400       207.454
10.303       119500       207.429
10.3116       119600       207.403
10.3202       119700       207.378
10.3288       119800       207.353
10.3375       119900       207.327
10.3461       120000       207.302
10.3547       120100       207.277
10.3633       120200       207.251
10.372       120300       207.226
10.3806       120400       207.201
10.3892       120500       207.176
10.3978       120600       207.151
10.4064       120700       207.125
10.4151       120800       207.1
10.4237       120900       207.075
10.4323       121000       207.05
10.4409       121100       207.025
10.4495       121200       207
10.4582       121300       206.975
10.4668       121400       206.95
10.4754       121500       206.925
10.484       121600       206.9
10.4927       121700       206.875
10.5013       121800       206.85
10.5099       121900       206.825
10.5185       122000       206.8
10.5271       122100       206.775
10.5358       122200       206.751
10.5444       122300       206.726
10.553       122400       206.701
10.5616       122500       206.676
10.5703       122600       206.652
10.5789       122700       206.627
10.5875       122800       206.602
10.5961       122900       206.577
10.6047       123000       206.553
10.6134       123100       206.528
10.622       123200       206.504
10.6306       123300       206.479
10.6392       123400       206.454
10.6478       123500       206.43
10.6565       123600       206.405
10.6651       123700       206.381
10.6737       123800       206.356
10.6823       123900       206.332
10.691       124000       206.307
10.6996       124100       206.283
10.7082       124200       206.259
10.7168       124300       206.234
10.7254       124400       206.21
10.7341       124500       206.186
10.7427       124600       206.161
10.7513       124700       206.137
10.7599       124800       206.113
10.7686       124900       206.088
10.7772       125000       206.064
10.7858       125100       206.04
10.7944       125200       206.016
10.803       125300       205.992
10.8117       125400       205.968
10.8203       125500       205.943
10.8289       125600       205.919
10.8375       125700       205.895
10.8461       125800       205.871
10.8548       125900       205.847
10.8634       126000       205.823
10.872       126100       205.799
10.8806       126200       205.775
10.8893       126300       205.751
10.8979       126400       205.727
10.9065       126500       205.703
10.9151       126600       205.679
10.9237       126700       205.656
10.9324       126800       205.632
10.941       126900       205.608
10.9496       127000       205.584
10.9582       127100       205.56
10.9669       127200       205.536
10.9755       127300       205.513
10.9841       127400       205.489
10.9927       127500       205.465
11.0013       127600       205.442
11.01       127700       205.418
11.0186       127800       205.394
11.0272       127900       205.371
11.0358       128000       205.347
11.0444       128100       205.323
11.0531       128200       205.3
11.0617       128300       205.276
11.0703       128400       205.253
11.0789       128500       205.229
11.0876       128600       205.206
11.0962       128700       205.182
11.1048       128800       205.159
11.1134       128900       205.135
11.122       129000       205.112
11.1307       129100       205.089
11.1393       129200       205.065
11.1479       129300       205.042
11.1565       129400       205.018
11.1652       129500       204.995
11.1738       129600       204.972
11.1824       129700       204.949
11.191       129800       204.925
11.1996       129900       204.902
11.2083       130000       204.879
11.2169       130100       204.856
11.2255       130200       204.832
11.2341       130300       204.809
11.2427       130400       204.786
11.2514       130500       204.763
11.26       130600       204.74
11.2686       130700       204.717
11.2772       130800       204.694
11.2859       130900       204.671
11.2945       131000       204.648
11.3031       131100       204.625
11.3117       131200       204.602
11.3203       131300       204.579
11.329       131400       204.556
11.3376       131500       204.533
11.3462       131600       204.51
11.3548       131700       204.487
11.3635       131800       204.464
11.3721       131900       204.441
11.3807       132000       204.418
11.3893       132100       204.396
11.3979       132200       204.373
11.4066       132300       204.35
11.4152       132400       204.327
11.4238       132500       204.304
11.4324       132600       204.282
11.441       132700       204.259
11.4497       132800       204.236
11.4583       132900       204.214
11.4669       133000       204.191
11.4755       133100       204.168
11.4842       133200       204.146
11.4928       133300       204.123
11.5014       133400       204.101
11.51       133500       204.078
11.5186       133600       204.055
11.5273       133700       204.033
11.5359       133800       204.01
11.5445       133900       203.988
11.5531       134000       203.965
11.5618       134100       203.943
11.5704       134200       203.921
11.579       134300       203.898
11.5876       134400       203.876
11.5962       134500       203.853
11.6049       134600       203.831
11.6135       134700       203.809
11.6221       134800       203.786
11.6307       134900       203.764
11.6393       135000       203.742
11.648       135100       203.719
11.6566       135200       203.697
11.6652       135300       203.675
11.6738       135400       203.653
11.6825       135500       203.63
11.6911       135600       203.608
11.6997       135700       203.586
11.7083       135800       203.564
11.7169       135900       203.542
11.7256       136000       203.52
11.7342       136100       203.498
11.7428       136200       203.475
11.7514       136300       203.453
11.7601       136400       203.431
11.7687       136500       203.409
11.7773       136600       203.387
11.7859       136700       203.365
11.7945       136800       203.343
11.8032       136900       203.321
11.8118       137000       203.299
11.8204       137100       203.278
11.829       137200       203.256
11.8376       137300       203.234
11.8463       137400       203.212
11.8549       137500       203.19
11.8635       137600       203.168
11.8721       137700       203.146
11.8808       137800       203.124
11.8894       137900       203.103
11.898       138000       203.081
11.9066       138100       203.059
11.9152       138200       203.037
11.9239       138300       203.016
11.9325       138400       202.994
11.9411       138500       202.972
11.9497       138600       202.951
11.9584       138700       202.929
11.967       138800       202.907
11.9756       138900       202.886
11.9842       139000       202.864
11.9928       139100       202.843
12.0015       139200       202.821
12.0101       139300       202.799
12.0187       139400       202.778
12.0273       139500       202.756
12.0359       139600       202.735
12.0446       139700       202.713
12.0532       139800       202.692
12.0618       139900       202.67
12.0704       140000       202.649
12.0791       140100       202.628
12.0877       140200       202.606
12.0963       140300       202.585
12.1049       140400       202.563
12.1135       140500       202.542
12.1222       140600       202.521
12.1308       140700       202.499
12.1394       140800       202.478
12.148       140900       202.457
12.1567       141000       202.436
12.1653       141100       202.414
12.1739       141200       202.393
12.1825       141300       202.372
12.1911       141400       202.351
12.1998       141500       202.329
12.2084       141600       202.308
12.217       141700       202.287
12.2256       141800       202.266
12.2342       141900       202.245
12.2429       142000       202.224
12.2515       142100       202.203
12.2601       142200       202.182
12.2687       142300       202.16
12.2774       142400       202.139
12.286       142500       202.118
12.2946       142600       202.097
12.3032       142700       202.076
12.3118       142800       202.055
12.3205       142900       202.034
12.3291       143000       202.013
12.3377       143100       201.993
12.3463       143200       201.972
12.355       143300       201.951
12.3636       143400       201.93
12.3722       143500       201.909
12.3808       143600       201.888
12.3894       143700       201.867
12.3981       143800       201.846
12.4067       143900       201.826
12.4153       144000       201.805
12.4239       144100       201.784
12.4325       144200       201.763
12.4412       144300       201.742
12.4498       144400       201.722
12.4584       144500       201.701
12.467       144600       201.68
12.4757       144700       201.66
12.4843       144800       201.639
12.4929       144900       201.618
12.5015       145000       201.598
12.5101       145100       201.577
12.5188       145200       201.556
12.5274       145300       201.536
12.536       145400       201.515
12.5446       145500       201.495
12.5533       145600       201.474
12.5619       145700       201.454
12.5705       145800       201.433
12.5791       145900       201.413
12.5877       146000       201.392
12.5964       146100       201.372
12.605       146200       201.351
12.6136       146300       201.331
12.6222       146400       201.31
12.6308       146500       201.29
12.6395       146600       201.269
12.6481       146700       201.249
12.6567       146800       201.229
12.6653       146900       201.208
12.674       147000       201.188
12.6826       147100       201.168
12.6912       147200       201.147
12.6998       147300       201.127
12.7084       147400       201.107
12.7171       147500       201.087
12.7257       147600       201.066
12.7343       147700       201.046
12.7429       147800       201.026
12.7516       147900       201.006
12.7602       148000       200.985
12.7688       148100       200.965
12.7774       148200       200.945
12.786       148300       200.925
12.7947       148400       200.905
12.8033       148500       200.885
12.8119       148600       200.865
12.8205       148700       200.845
12.8291       148800       200.824
12.8378       148900       200.804
12.8464       149000       200.784
12.855       149100       200.764
12.8636       149200       200.744
12.8723       149300       200.724
12.8809       149400       200.704
12.8895       149500       200.684
12.8981       149600       200.664
12.9067       149700       200.644
12.9154       149800       200.625
12.924       149900       200.605
12.9326       150000       200.585
12.9412       150100       200.565
12.9499       150200       200.545
12.9585       150300       200.525
12.9671       150400       200.505
12.9757       150500       200.485
12.9843       150600       200.466
12.993       150700       200.446
13.0016       150800       200.426
13.0102       150900       200.406
13.0188       151000       200.387
13.0274       151100       200.367
13.0361       151200       200.347
13.0447       151300       200.327
13.0533       151400       200.308
13.0619       151500       200.288
13.0706       151600       200.268
13.0792       151700       200.249
13.0878       151800       200.229
13.0964       151900       200.209
13.105       152000       200.19
13.1137       152100       200.17
13.1223       152200       200.151
13.1309       152300       200.131
13.1395       152400       200.111
13.1482       152500       200.092
13.1568       152600       200.072
13.1654       152700       200.053
13.174       152800       200.033
13.1826       152900       200.014
13.1913       153000       199.994
13.1999       153100       199.975
13.2085       153200       199.955
13.2171       153300       199.936
13.2257       153400       199.917
13.2344       153500       199.897
13.243       153600       199.878
13.2516       153700       199.858
13.2602       153800       199.839
13.2689       153900       199.82
13.2775       154000       199.8
13.2861       154100       199.781
13.2947       154200       199.762
13.3033       154300       199.742
13.312       154400       199.723
13.3206       154500       199.704
13.3292       154600       199.685
13.3378       154700       199.665
13.3465       154800       199.646
13.3551       154900       199.627
13.3637       155000       199.608
13.3723       155100       199.588
13.3809       155200       199.569
13.3896       155300       199.55
13.3982       155400       199.531
13.4068       155500       199.512
13.4154       155600       199.493
13.424       155700       199.474
13.4327       155800       199.454
13.4413       155900       199.435
13.4499       156000       199.416
13.4585       156100       199.397
13.4672       156200       199.378
13.4758       156300       199.359
13.4844       156400       199.34
13.493       156500       199.321
13.5016       156600       199.302
13.5103       156700       199.283
13.5189       156800       199.264
13.5275       156900       199.245
13.5361       157000       199.226
13.5448       157100       199.207
13.5534       157200       199.188
13.562       157300       199.169
13.5706       157400       199.151
13.5792       157500       199.132
13.5879       157600       199.113
13.5965       157700       199.094
13.6051       157800       199.075
13.6137       157900       199.056
13.6223       158000       199.037
13.631       158100       199.019
13.6396       158200       199
13.6482       158300       198.981
13.6568       158400       198.962
13.6655       158500       198.944
13.6741       158600       198.925
13.6827       158700       198.906
13.6913       158800       198.887
13.6999       158900       198.869
13.7086       159000       198.85
13.7172       159100       198.831
13.7258       159200       198.813
13.7344       159300       198.794
13.7431       159400       198.775
13.7517       159500       198.757
13.7603       159600       198.738
13.7689       159700       198.72
13.7775       159800       198.701
13.7862       159900       198.682
13.7948       160000       198.664
13.8034       160100       198.645
13.812       160200       198.627
13.8206       160300       198.608
13.8293       160400       198.59
13.8379       160500       198.571
13.8465       160600       198.553
13.8551       160700       198.534
13.8638       160800       198.516
13.8724       160900       198.497
13.881       161000       198.479
13.8896       161100       198.461
13.8982       161200       198.442
13.9069       161300       198.424
13.9155       161400       198.405
13.9241       161500       198.387
13.9327       161600       198.369
13.9414       161700       198.35
13.95       161800       198.332
13.9586       161900       198.314
13.9672       162000       198.295
13.9758       162100       198.277
13.9845       162200       198.259
13.9931       162300       198.24
14.0017       162400       198.222
14.0103       162500       198.204
14.0189       162600       198.186
14.0276       162700       198.167
14.0362       162800       198.149
14.0448       162900       198.131
14.0534       163000       198.113
14.0621       163100       198.095
14.0707       163200       198.076
14.0793       163300       198.058
14.0879       163400       198.04
14.0965       163500       198.022
14.1052       163600       198.004
14.1138       163700       197.986
14.1224       163800       197.968
14.131       163900       197.95
14.1397       164000       197.931
14.1483       164100       197.913
14.1569       164200       197.895
14.1655       164300       197.877
14.1741       164400       197.859
14.1828       164500       197.841
14.1914       164600       197.823
14.2       164700       197.805
14.2086       164800       197.787
14.2172       164900       197.769
14.2259       165000       197.751
14.2345       165100       197.733
14.2431       165200       197.716
14.2517       165300       197.698
14.2604       165400       197.68
14.269       165500       197.662
14.2776       165600       197.644
14.2862       165700       197.626
14.2948       165800       197.608
14.3035       165900       197.59
14.3121       166000       197.573
14.3207       166100       197.555
14.3293       166200       197.537
14.338       166300       197.519
14.3466       166400       197.501
14.3552       166500       197.483
14.3638       166600       197.466
14.3724       166700       197.448
14.3811       166800       197.43
14.3897       166900       197.412
14.3983       167000       197.395
14.4069       167100       197.377
14.4155       167200       197.359
14.4242       167300       197.342
14.4328       167400       197.324
14.4414       167500       197.306
14.45       167600       197.289
14.4587       167700       197.271
14.4673       167800       197.253
14.4759       167900       197.236
14.4845       168000       197.218
14.4931       168100       197.201
14.5018       168200       197.183
14.5104       168300       197.165
14.519       168400       197.148
14.5276       168500       197.13
14.5363       168600       197.113
14.5449       168700       197.095
14.5535       168800       197.078
14.5621       168900       197.06
14.5707       169000       197.043
14.5794       169100       197.025
14.588       169200       197.008
14.5966       169300       196.99
14.6052       169400       196.973
14.6138       169500       196.955
14.6225       169600       196.938
14.6311       169700       196.92
14.6397       169800       196.903
14.6483       169900       196.886
14.657       170000       196.868
14.6656       170100       196.851
14.6742       170200       196.834
14.6828       170300       196.816
14.6914       170400       196.799
14.7001       170500       196.782
14.7087       170600       196.764
14.7173       170700       196.747
14.7259       170800       196.73
14.7346       170900       196.712
14.7432       171000       196.695
14.7518       171100       196.678
14.7604       171200       196.661
14.769       171300       196.643
14.7777       171400       196.626
14.7863       171500       196.609
14.7949       171600       196.592
14.8035       171700       196.574
14.8121       171800       196.557
14.8208       171900       196.54
14.8294       172000       196.523
14.838       172100       196.506
14.8466       172200       196.489
14.8553       172300       196.471
14.8639       172400       196.454
14.8725       172500       196.437
14.8811       172600       196.42
14.8897       172700       196.403
14.8984       172800       196.386
14.907       172900       196.369
14.9156       173000       196.352
14.9242       173100       196.335
14.9329       173200       196.318
14.9415       173300       196.301
14.9501       173400       196.284
14.9587       173500       196.267
14.9673       173600       196.25
14.976       173700       196.233
14.9846       173800       196.216
14.9932       173900       196.199
15.0018       174000       196.182
15.0104       174100       196.165
15.0191       174200       196.148
15.0277       174300       196.131
15.0363       174400       196.114
15.0449       174500       196.097
15.0536       174600       196.08
15.0622       174700       196.063
15.0708       174800       196.046
15.0794       174900       196.03
15.088       175000       196.013
15.0967       175100       195.996
15.1053       175200       195.979
15.1139       175300       195.962
15.1225       175400       195.945
15.1312       175500       195.929
15.1398       175600       195.912
15.1484       175700       195.895
15.157       175800       195.878
15.1656       175900       195.862
15.1743       176000       195.845
15.1829       176100       195.828
15.1915       176200       195.811
15.2001       176300       195.795
15.2087       176400       195.778
15.2174       176500       195.761
15.226       176600       195.745
15.2346       176700       195.728
15.2432       176800       195.711
15.2519       176900       195.695
15.2605       177000       195.678
15.2691       177100       195.661
15.2777       177200       195.645
15.2863       177300       195.628
15.295       177400       195.611
15.3036       177500       195.595
15.3122       177600       195.578
15.3208       177700       195.562
15.3295       177800       195.545
15.3381       177900       195.529
15.3467       178000       195.512
15.3553       178100       195.495
15.3639       178200       195.479
15.3726       178300       195.462
15.3812       178400       195.446
15.3898       178500       195.429
15.3984       178600       195.413
15.407       178700       195.396
15.4157       178800       195.38
15.4243       178900       195.364
15.4329       179000       195.347
15.4415       179100       195.331
15.4502       179200       195.314
15.4588       179300       195.298
15.4674       179400       195.281
15.476       179500       195.265
15.4846       179600       195.249
15.4933       179700       195.232
15.5019       179800       195.216
15.5105       179900       195.2
15.5191       180000       195.183
15.5278       180100       195.167
15.5364       180200       195.151
15.545       180300       195.134
15.5536       180400       195.118
15.5622       180500       195.102
15.5709       180600       195.085
15.5795       180700       195.069
15.5881       180800       195.053
15.5967       180900       195.036
15.6053       181000       195.02
15.614       181100       195.004
15.6226       181200       194.988
15.6312       181300       194.972
15.6398       181400       194.955
15.6485       181500       194.939
15.6571       181600       194.923
15.6657       181700       194.907
15.6743       181800       194.891
15.6829       181900       194.874
15.6916       182000       194.858
15.7002       182100       194.842
15.7088       182200       194.826
15.7174       182300       194.81
15.7261       182400       194.794
15.7347       182500       194.778
15.7433       182600       194.762
15.7519       182700       194.745
15.7605       182800       194.729
15.7692       182900       194.713
15.7778       183000       194.697
15.7864       183100       194.681
15.795       183200       194.665
15.8036       183300       194.649
15.8123       183400       194.633
15.8209       183500       194.617
15.8295       183600       194.601
15.8381       183700       194.585
15.8468       183800       194.569
15.8554       183900       194.553
15.864       184000       194.537
15.8726       184100       194.521
15.8812       184200       194.505
15.8899       184300       194.489
15.8985       184400       194.473
15.9071       184500       194.458
15.9157       184600       194.442
15.9244       184700       194.426
15.933       184800       194.41
15.9416       184900       194.394
15.9502       185000       194.378
15.9588       185100       194.362
15.9675       185200       194.346
15.9761       185300       194.331
15.9847       185400       194.315
15.9933       185500       194.299
16.0019       185600       194.283
16.0106       185700       194.267
16.0192       185800       194.251
16.0278       185900       194.236
16.0364       186000       194.22
16.0451       186100       194.204
16.0537       186200       194.188
16.0623       186300       194.173
16.0709       186400       194.157
16.0795       186500       194.141
16.0882       186600       194.125
16.0968       186700       194.11
16.1054       186800       194.094
16.114       186900       194.078
16.1227       187000       194.063
16.1313       187100       194.047
16.1399       187200       194.031
16.1485       187300       194.016
16.1571       187400       194
16.1658       187500       193.984
16.1744       187600       193.969
16.183       187700       193.953
16.1916       187800       193.937
16.2002       187900       193.922
16.2089       188000       193.906
16.2175       188100       193.891
16.2261       188200       193.875
16.2347       188300       193.859
16.2434       188400       193.844
16.252       188500       193.828
16.2606       188600       193.813
16.2692       188700       193.797
16.2778       188800       193.782
16.2865       188900       193.766
16.2951       189000       193.751
16.3037       189100       193.735
16.3123       189200       193.72
16.321       189300       193.704
16.3296       189400       193.689
16.3382       189500       193.673
16.3468       189600       193.658
16.3554       189700       193.642
16.3641       189800       193.627
16.3727       189900       193.612
16.3813       190000       193.596
16.3899       190100       193.581
16.3985       190200       193.565
16.4072       190300       193.55
16.4158       190400       193.535
16.4244       190500       193.519
16.433       190600       193.504
16.4417       190700       193.488
16.4503       190800       193.473
16.4589       190900       193.458
16.4675       191000       193.442
16.4761       191100       193.427
16.4848       191200       193.412
16.4934       191300       193.396
16.502       191400       193.381
16.5106       191500       193.366
16.5193       191600       193.351
16.5279       191700       193.335
16.5365       191800       193.32
16.5451       191900       193.305
16.5537       192000       193.29
16.5624       192100       193.274
16.571       192200       193.259
16.5796       192300       193.244
16.5882       192400       193.229
16.5968       192500       193.213
16.6055       192600       193.198
16.6141       192700       193.183
16.6227       192800       193.168
16.6313       192900       193.153
16.64       193000       193.138
16.6486       193100       193.122
16.6572       193200       193.107
16.6658       193300       193.092
16.6744       193400       193.077
16.6831       193500       193.062
16.6917       193600       193.047
16.7003       193700       193.032
16.7089       193800       193.017
16.7175       193900       193.001
16.7262       194000       192.986
16.7348       194100       192.971
16.7434       194200       192.956
16.752       194300       192.941
16.7607       194400       192.926
16.7693       194500       192.911
16.7779       194600       192.896
16.7865       194700       192.881
16.7951       194800       192.866
16.8038       194900       192.851
16.8124       195000       192.836
16.821       195100       192.821
16.8296       195200       192.806
16.8383       195300       192.791
16.8469       195400       192.776
16.8555       195500       192.761
16.8641       195600       192.746
16.8727       195700       192.731
16.8814       195800       192.716
16.89       195900       192.701
16.8986       196000       192.687
16.9072       196100       192.672
16.9158       196200       192.657
16.9245       196300       192.642
16.9331       196400       192.627
16.9417       196500       192.612
16.9503       196600       192.597
16.959       196700       192.582
16.9676       196800       192.568
16.9762       196900       192.553
16.9848       197000       192.538
16.9934       197100       192.523
17.0021       197200       192.508
17.0107       197300       192.493
17.0193       197400       192.479
17.0279       197500       192.464
17.0366       197600       192.449
17.0452       197700       192.434
17.0538       197800       192.42
17.0624       197900       192.405
17.071       198000       192.39
17.0797       198100       192.375
17.0883       198200       192.361
17.0969       198300       192.346
17.1055       198400       192.331
17.1141       198500       192.316
17.1228       198600       192.302
17.1314       198700       192.287
17.14       198800       192.272
17.1486       198900       192.258
17.1573       199000       192.243
17.1659       199100       192.228
17.1745       199200       192.214
17.1831       199300       192.199
17.1917       199400       192.184
17.2004       199500       192.17
17.209       199600       192.155
17.2176       199700       192.14
17.2262       199800       192.126
17.2349       199900       192.111
17.2435       200000       192.097
17.2521       200100       192.082
17.2607       200200       192.068
17.2693       200300       192.053
17.278       200400       192.038
17.2866       200500       192.024
17.2952       200600       192.009
17.3038       200700       191.995
17.3124       200800       191.98
17.3211       200900       191.966
17.3297       201000       191.951
17.3383       201100       191.937
17.3469       201200       191.922
17.3556       201300       191.908
17.3642       201400       191.893
17.3728       201500       191.879
17.3814       201600       191.864
17.39       201700       191.85
17.3987       201800       191.835
17.4073       201900       191.821
17.4159       202000       191.806
17.4245       202100       191.792
17.4332       202200       191.778
17.4418       202300       191.763
17.4504       202400       191.749
17.459       202500       191.734
17.4676       202600       191.72
17.4763       202700       191.706
17.4849       202800       191.691
17.4935       202900       191.677
17.5021       203000       191.663
17.5107       203100       191.648
17.5194       203200       191.634
17.528       203300       191.62
17.5366       203400       191.605
17.5452       203500       191.591
17.5539       203600       191.577
17.5625       203700       191.562
17.5711       203800       191.548
17.5797       203900       191.534
17.5883       204000       191.519
17.597       204100       191.505
17.6056       204200       191.491
17.6142       204300       191.477
17.6228       204400       191.462
17.6315       204500       191.448
17.6401       204600       191.434
17.6487       204700       191.42
17.6573       204800       191.405
17.6659       204900       191.391
17.6746       205000       191.377
17.6832       205100       191.363
17.6918       205200       191.349
17.7004       205300       191.334
17.709       205400       191.32
17.7177       205500       191.306
17.7263       205600       191.292
17.7349       205700       191.278
17.7435       205800       191.264
17.7522       205900       191.249
17.7608       206000       191.235
17.7694       206100       191.221
17.778       206200       191.207
17.7866       206300       191.193
17.7953       206400       191.179
17.8039       206500       191.165
17.8125       206600       191.151
17.8211       206700       191.137
17.8298       206800       191.123
17.8384       206900       191.108
17.847       207000       191.094
17.8556       207100       191.08
17.8642       207200       191.066
17.8729       207300       191.052
17.8815       207400       191.038
17.8901       207500       191.024
17.8987       207600       191.01
17.9073       207700       190.996
17.916       207800       190.982
17.9246       207900       190.968
17.9332       208000       190.954
17.9418       208100       190.94
17.9505       208200       190.926
17.9591       208300       190.912
17.9677       208400       190.898
17.9763       208500       190.884
17.9849       208600       190.87
17.9936       208700       190.856
18.0022       208800       190.843
18.0108       208900       190.829
18.0194       209000       190.815
18.0281       209100       190.801
18.0367       209200       190.787
18.0453       209300       190.773
18.0539       209400       190.759
18.0625       209500       190.745
18.0712       209600       190.731
18.0798       209700       190.718
18.0884       209800       190.704
18.097       209900       190.69
18.1056       210000       190.676
18.1143       210100       190.662
18.1229       210200       190.648
18.1315       210300       190.634
18.1401       210400       190.621
18.1488       210500       190.607
18.1574       210600       190.593
18.166       210700       190.579
18.1746       210800       190.565
18.1832       210900       190.552
18.1919       211000       190.538
18.2005       211100       190.524
18.2091       211200       190.51
18.2177       211300       190.497
18.2264       211400       190.483
18.235       211500       190.469
18.2436       211600       190.455
18.2522       211700       190.442
18.2608       211800       190.428
18.2695       211900       190.414
18.2781       212000       190.401
18.2867       212100       190.387
18.2953       212200       190.373
18.3039       212300       190.36
18.3126       212400       190.346
18.3212       212500       190.332
18.3298       212600       190.319
18.3384       212700       190.305
18.3471       212800       190.291
18.3557       212900       190.278
18.3643       213000       190.264
18.3729       213100       190.25
18.3815       213200       190.237
18.3902       213300       190.223
18.3988       213400       190.209
18.4074       213500       190.196
18.416       213600       190.182
18.4247       213700       190.169
18.4333       213800       190.155
18.4419       213900       190.142
18.4505       214000       190.128
18.4591       214100       190.114
18.4678       214200       190.101
18.4764       214300       190.087
18.485       214400       190.074
18.4936       214500       190.06
18.5022       214600       190.047
18.5109       214700       190.033
18.5195       214800       190.02
18.5281       214900       190.006
18.5367       215000       189.993
18.5454       215100       189.979
18.554       215200       189.966
18.5626       215300       189.952
18.5712       215400       189.939
18.5798       215500       189.925
18.5885       215600       189.912
18.5971       215700       189.898
18.6057       215800       189.885
18.6143       215900       189.872
18.623       216000       189.858
18.6316       216100       189.845
18.6402       216200       189.831
18.6488       216300       189.818
18.6574       216400       189.805
18.6661       216500       189.791
18.6747       216600       189.778
18.6833       216700       189.764
18.6919       216800       189.751
18.7005       216900       189.738
18.7092       217000       189.724
18.7178       217100       189.711
18.7264       217200       189.698
18.735       217300       189.684
18.7437       217400       189.671
18.7523       217500       189.658
18.7609       217600       189.644
18.7695       217700       189.631
18.7781       217800       189.618
18.7868       217900       189.604
18.7954       218000       189.591
18.804       218100       189.578
18.8126       218200       189.564
18.8213       218300       189.551
18.8299       218400       189.538
18.8385       218500       189.525
18.8471       218600       189.511
18.8557       218700       189.498
18.8644       218800       189.485
18.873       218900       189.472
18.8816       219000       189.458
18.8902       219100       189.445
18.8988       219200       189.432
18.9075       219300       189.419
18.9161       219400       189.406
18.9247       219500       189.392
18.9333       219600       189.379
18.942       219700       189.366
18.9506       219800       189.353
18.9592       219900       189.34
18.9678       220000       189.326
18.9764       220100       189.313
18.9851       220200       189.3
18.9937       220300       189.287
19.0023       220400       189.274
19.0109       220500       189.261
19.0196       220600       189.248
19.0282       220700       189.234
19.0368       220800       189.221
19.0454       220900       189.208
19.054       221000       189.195
19.0627       221100       189.182
19.0713       221200       189.169
19.0799       221300       189.156
19.0885       221400       189.143
19.0971       221500       189.13
19.1058       221600       189.117
19.1144       221700       189.104
19.123       221800       189.091
19.1316       221900       189.078
19.1403       222000       189.064
19.1489       222100       189.051
19.1575       222200       189.038
19.1661       222300       189.025
19.1747       222400       189.012
19.1834       222500       188.999
19.192       222600       188.986
19.2006       222700       188.973
19.2092       222800       188.96
19.2179       222900       188.947
19.2265       223000       188.934
19.2351       223100       188.921
19.2437       223200       188.909
19.2523       223300       188.896
19.261       223400       188.883
19.2696       223500       188.87
19.2782       223600       188.857
19.2868       223700       188.844
19.2954       223800       188.831
19.3041       223900       188.818
19.3127       224000       188.805
19.3213       224100       188.792
19.3299       224200       188.779
19.3386       224300       188.766
19.3472       224400       188.753
19.3558       224500       188.741
19.3644       224600       188.728
19.373       224700       188.715
19.3817       224800       188.702
19.3903       224900       188.689
19.3989       225000       188.676
19.4075       225100       188.663
19.4162       225200       188.651
19.4248       225300       188.638
19.4334       225400       188.625
19.442       225500       188.612
19.4506       225600       188.599
19.4593       225700       188.586
19.4679       225800       188.574
19.4765       225900       188.561
19.4851       226000       188.548
19.4937       226100       188.535
19.5024       226200       188.523
19.511       226300       188.51
19.5196       226400       188.497
19.5282       226500       188.484
19.5369       226600       188.471
19.5455       226700       188.459
19.5541       226800       188.446
19.5627       226900       188.433
19.5713       227000       188.421
19.58       227100       188.408
19.5886       227200       188.395
19.5972       227300       188.382
19.6058       227400       188.37
19.6145       227500       188.357
19.6231       227600       188.344
19.6317       227700       188.332
19.6403       227800       188.319
19.6489       227900       188.306
19.6576       228000       188.294
19.6662       228100       188.281
19.6748       228200       188.268
19.6834       228300       188.256
19.692       228400       188.243
19.7007       228500       188.23
19.7093       228600       188.218
19.7179       228700       188.205
19.7265       228800       188.192
19.7352       228900       188.18
19.7438       229000       188.167
19.7524       229100       188.155
19.761       229200       188.142
19.7696       229300       188.129
19.7783       229400       188.117
19.7869       229500       188.104
19.7955       229600       188.092
19.8041       229700       188.079
19.8128       229800       188.067
19.8214       229900       188.054
19.83       230000       188.041
19.8386       230100       188.029
19.8472       230200       188.016
19.8559       230300       188.004
19.8645       230400       187.991
19.8731       230500       187.979
19.8817       230600       187.966
19.8903       230700       187.954
19.899       230800       187.941
19.9076       230900       187.929
19.9162       231000       187.916
19.9248       231100       187.904
19.9335       231200       187.891
19.9421       231300       187.879
19.9507       231400       187.866
19.9593       231500       187.854
19.9679       231600       187.841
19.9766       231700       187.829
19.9852       231800       187.817
19.9938       231900       187.804
20.0024       232000       187.792
20.0111       232100       187.779
20.0197       232200       187.767
20.0283       232300       187.754
20.0369       232400       187.742
20.0455       232500       187.73
20.0542       232600       187.717
20.0628       232700       187.705
20.0714       232800       187.692
20.08       232900       187.68
20.0886       233000       187.668
20.0973       233100       187.655
20.1059       233200       187.643
20.1145       233300       187.631
20.1231       233400       187.618
20.1318       233500       187.606
20.1404       233600       187.594
20.149       233700       187.581
20.1576       233800       187.569
20.1662       233900       187.557
20.1749       234000       187.544
20.1835       234100       187.532
20.1921       234200       187.52
20.2007       234300       187.507
20.2094       234400       187.495
20.218       234500       187.483
20.2266       234600       187.471
20.2352       234700       187.458
20.2438       234800       187.446
20.2525       234900       187.434
20.2611       235000       187.421
20.2697       235100       187.409
20.2783       235200       187.397
20.2869       235300       187.385
20.2956       235400       187.372
20.3042       235500       187.36
20.3128       235600       187.348
20.3214       235700       187.336
20.3301       235800       187.324
20.3387       235900       187.311
20.3473       236000       187.299
20.3559       236100       187.287
20.3645       236200       187.275
20.3732       236300       187.263
20.3818       236400       187.25
20.3904       236500       187.238
20.399       236600       187.226
20.4077       236700       187.214
20.4163       236800       187.202
20.4249       236900       187.19
20.4335       237000       187.177
20.4421       237100       187.165
20.4508       237200       187.153
20.4594       237300       187.141
20.468       237400       187.129
20.4766       237500       187.117
20.4852       237600       187.105
20.4939       237700       187.092
20.5025       237800       187.08
20.5111       237900       187.068
20.5197       238000       187.056
20.5284       238100       187.044
20.537       238200       187.032
20.5456       238300       187.02
20.5542       238400       187.008
20.5628       238500       186.996
20.5715       238600       186.984
20.5801       238700       186.972
20.5887       238800       186.96
20.5973       238900       186.948
20.606       239000       186.936
20.6146       239100       186.924
20.6232       239200       186.911
20.6318       239300       186.899
20.6404       239400       186.887
20.6491       239500       186.875
20.6577       239600       186.863
20.6663       239700       186.851
20.6749       239800       186.839
20.6835       239900       186.827
20.6922       240000       186.815
20.7008       240100       186.803
20.7094       240200       186.791
20.718       240300       186.78
20.7267       240400       186.768
20.7353       240500       186.756
20.7439       240600       186.744
20.7525       240700       186.732
20.7611       240800       186.72
20.7698       240900       186.708
20.7784       241000       186.696
20.787       241100       186.684
20.7956       241200       186.672
20.8043       241300       186.66
20.8129       241400       186.648
20.8215       241500       186.636
20.8301       241600       186.624
20.8387       241700       186.612
20.8474       241800       186.601
20.856       241900       186.589
20.8646       242000       186.577
20.8732       242100       186.565
20.8818       242200       186.553
20.8905       242300       186.541
20.8991       242400       186.529
20.9077       242500       186.518
20.9163       242600       186.506
20.925       242700       186.494
20.9336       242800       186.482
20.9422       242900       186.47
20.9508       243000       186.458
20.9594       243100       186.447
20.9681       243200       186.435
20.9767       243300       186.423
20.9853       243400       186.411
20.9939       243500       186.399
21.0026       243600       186.387
21.0112       243700       186.376
21.0198       243800       186.364
21.0284       243900       186.352
21.037       244000       186.34
21.0457       244100       186.329
21.0543       244200       186.317
21.0629       244300       186.305
21.0715       244400       186.293
21.0801       244500       186.282
21.0888       244600       186.27
21.0974       244700       186.258
21.106       244800       186.246
21.1146       244900       186.235
21.1233       245000       186.223
21.1319       245100       186.211
21.1405       245200       186.199
21.1491       245300       186.188
21.1577       245400       186.176
21.1664       245500       186.164
21.175       245600       186.153
21.1836       245700       186.141
21.1922       245800       186.129
21.2009       245900       186.118
21.2095       246000       186.106
21.2181       246100       186.094
21.2267       246200       186.083
21.2353       246300       186.071
21.244       246400       186.059
21.2526       246500       186.048
21.2612       246600       186.036
21.2698       246700       186.024
21.2784       246800       186.013
21.2871       246900       186.001
21.2957       247000       185.99
21.3043       247100       185.978
21.3129       247200       185.966
21.3216       247300       185.955
21.3302       247400       185.943
21.3388       247500       185.932
21.3474       247600       185.92
21.356       247700       185.908
21.3647       247800       185.897
21.3733       247900       185.885
21.3819       248000       185.874
21.3905       248100       185.862
21.3992       248200       185.85
21.4078       248300       185.839
21.4164       248400       185.827
21.425       248500       185.816
21.4336       248600       185.804
21.4423       248700       185.793
21.4509       248800       185.781
21.4595       248900       185.77
21.4681       249000       185.758
21.4767       249100       185.747
21.4854       249200       185.735
21.494       249300       185.724
21.5026       249400       185.712
21.5112       249500       185.701
21.5199       249600       185.689
21.5285       249700       185.678
21.5371       249800       185.666
21.5457       249900       185.655
21.5543       250000       185.643
21.563       250100       185.632
21.5716       250200       185.62
21.5802       250300       185.609
21.5888       250400       185.597
21.5975       250500       185.586
21.6061       250600       185.575
21.6147       250700       185.563
21.6233       250800       185.552
21.6319       250900       185.54
21.6406       251000       185.529
21.6492       251100       185.517
21.6578       251200       185.506
21.6664       251300       185.495
21.675       251400       185.483
21.6837       251500       185.472
21.6923       251600       185.46
21.7009       251700       185.449
21.7095       251800       185.438
21.7182       251900       185.426
21.7268       252000       185.415
21.7354       252100       185.404
21.744       252200       185.392
21.7526       252300       185.381
21.7613       252400       185.369
21.7699       252500       185.358
21.7785       252600       185.347
21.7871       252700       185.335
21.7958       252800       185.324
21.8044       252900       185.313
21.813       253000       185.301
21.8216       253100       185.29
21.8302       253200       185.279
21.8389       253300       185.268
21.8475       253400       185.256
21.8561       253500       185.245
21.8647       253600       185.234
21.8733       253700       185.222
21.882       253800       185.211
21.8906       253900       185.2
21.8992       254000       185.189
21.9078       254100       185.177
21.9165       254200       185.166
21.9251       254300       185.155
21.9337       254400       185.143
21.9423       254500       185.132
21.9509       254600       185.121
21.9596       254700       185.11
21.9682       254800       185.098
21.9768       254900       185.087
21.9854       255000       185.076
21.9941       255100       185.065
22.0027       255200       185.054
22.0113       255300       185.042
22.0199       255400       185.031
22.0285       255500       185.02
22.0372       255600       185.009
22.0458       255700       184.998
22.0544       255800       184.986
22.063       255900       184.975
22.0716       256000       184.964
22.0803       256100       184.953
22.0889       256200       184.942
22.0975       256300       184.931
22.1061       256400       184.919
22.1148       256500       184.908
22.1234       256600       184.897
22.132       256700       184.886
22.1406       256800       184.875
22.1492       256900       184.864
22.1579       257000       184.852
22.1665       257100       184.841
22.1751       257200       184.83
22.1837       257300       184.819
22.1924       257400       184.808
22.201       257500       184.797
22.2096       257600       184.786
22.2182       257700       184.775
22.2268       257800       184.764
22.2355       257900       184.753
22.2441       258000       184.741
22.2527       258100       184.73
22.2613       258200       184.719
22.2699       258300       184.708
22.2786       258400       184.697
22.2872       258500       184.686
22.2958       258600       184.675
22.3044       258700       184.664
22.3131       258800       184.653
22.3217       258900       184.642
22.3303       259000       184.631
22.3389       259100       184.62
22.3475       259200       184.609
22.3562       259300       184.598
22.3648       259400       184.587
22.3734       259500       184.576
22.382       259600       184.565
22.3907       259700       184.554
22.3993       259800       184.543
22.4079       259900       184.532
22.4165       260000       184.521
22.4251       260100       184.51
22.4338       260200       184.499
22.4424       260300       184.488
22.451       260400       184.477
22.4596       260500       184.466
22.4682       260600       184.455
22.4769       260700       184.444
22.4855       260800       184.433
22.4941       260900       184.422
22.5027       261000       184.411
22.5114       261100       184.4
22.52       261200       184.389
22.5286       261300       184.378
22.5372       261400       184.367
22.5458       261500       184.356
22.5545       261600       184.345
22.5631       261700       184.334
22.5717       261800       184.324
22.5803       261900       184.313
22.589       262000       184.302
22.5976       262100       184.291
22.6062       262200       184.28
22.6148       262300       184.269
22.6234       262400       184.258
22.6321       262500       184.247
22.6407       262600       184.236
22.6493       262700       184.226
22.6579       262800       184.215
22.6665       262900       184.204
22.6752       263000       184.193
22.6838       263100       184.182
22.6924       263200       184.171
22.701       263300       184.16
22.7097       263400       184.15
22.7183       263500       184.139
22.7269       263600       184.128
22.7355       263700       184.117
22.7441       263800       184.106
22.7528       263900       184.095
22.7614       264000       184.085
22.77       264100       184.074
22.7786       264200       184.063
22.7873       264300       184.052
22.7959       264400       184.041
22.8045       264500       184.031
22.8131       264600       184.02
22.8217       264700       184.009
22.8304       264800       183.998
22.839       264900       183.987
22.8476       265000       183.977
22.8562       265100       183.966
22.8648       265200       183.955
22.8735       265300       183.944
22.8821       265400       183.934
22.8907       265500       183.923
22.8993       265600       183.912
22.908       265700       183.901
22.9166       265800       183.891
22.9252       265900       183.88
22.9338       266000       183.869
22.9424       266100       183.859
22.9511       266200       183.848
22.9597       266300       183.837
22.9683       266400       183.826
22.9769       266500       183.816
22.9856       266600       183.805
22.9942       266700       183.794
23.0028       266800       183.784
23.0114       266900       183.773
23.02       267000       183.762
23.0287       267100       183.752
23.0373       267200       183.741
23.0459       267300       183.73
23.0545       267400       183.72
23.0631       267500       183.709
23.0718       267600       183.698
23.0804       267700       183.688
23.089       267800       183.677
23.0976       267900       183.666
23.1063       268000       183.656
23.1149       268100       183.645
23.1235       268200       183.634
23.1321       268300       183.624
23.1407       268400       183.613
23.1494       268500       183.602
23.158       268600       183.592
23.1666       268700       183.581
23.1752       268800       183.571
23.1839       268900       183.56
23.1925       269000       183.549
23.2011       269100       183.539
23.2097       269200       183.528
23.2183       269300       183.518
23.227       269400       183.507
23.2356       269500       183.497
23.2442       269600       183.486
23.2528       269700       183.475
23.2614       269800       183.465
23.2701       269900       183.454
23.2787       270000       183.444
23.2873       270100       183.433
23.2959       270200       183.423
23.3046       270300       183.412
23.3132       270400       183.402
23.3218       270500       183.391
23.3304       270600       183.38
23.339       270700       183.37
23.3477       270800       183.359
23.3563       270900       183.349
23.3649       271000       183.338
23.3735       271100       183.328
23.3822       271200       183.317
23.3908       271300       183.307
23.3994       271400       183.296
23.408       271500       183.286
23.4166       271600       183.275
23.4253       271700       183.265
23.4339       271800       183.254
23.4425       271900       183.244
23.4511       272000       183.233
23.4597       272100       183.223
23.4684       272200       183.213
23.477       272300       183.202
23.4856       272400       183.192
23.4942       272500       183.181
23.5029       272600       183.171
23.5115       272700       183.16
23.5201       272800       183.15
23.5287       272900       183.139
23.5373       273000       183.129
23.546       273100       183.119
23.5546       273200       183.108
23.5632       273300       183.098
23.5718       273400       183.087
23.5805       273500       183.077
23.5891       273600       183.066
23.5977       273700       183.056
23.6063       273800       183.046
23.6149       273900       183.035
23.6236       274000       183.025
23.6322       274100       183.015
23.6408       274200       183.004
23.6494       274300       182.994
23.658       274400       182.983
23.6667       274500       182.973
23.6753       274600       182.963
23.6839       274700       182.952
23.6925       274800       182.942
23.7012       274900       182.932
23.7098       275000       182.921
23.7184       275100       182.911
23.727       275200       182.901
23.7356       275300       182.89
23.7443       275400       182.88
23.7529       275500       182.87
23.7615       275600       182.859
23.7701       275700       182.849
23.7788       275800       182.839
23.7874       275900       182.828
23.796       276000       182.818
23.8046       276100       182.808
23.8132       276200       182.797
23.8219       276300       182.787
23.8305       276400       182.777
23.8391       276500       182.766
23.8477       276600       182.756
23.8563       276700       182.746
23.865       276800       182.736
23.8736       276900       182.725
23.8822       277000       182.715
23.8908       277100       182.705
23.8995       277200       182.695
23.9081       277300       182.684
23.9167       277400       182.674
23.9253       277500       182.664
23.9339       277600       182.654
23.9426       277700       182.643
23.9512       277800       182.633
23.9598       277900       182.623
23.9684       278000       182.613
23.9771       278100       182.602
23.9857       278200       182.592
23.9943       278300       182.582
24.0029       278400       182.572
24.0115       278500       182.562
24.0202       278600       182.551
24.0288       278700       182.541
24.0374       278800       182.531
24.046       278900       182.521
24.0546       279000       182.511
24.0633       279100       182.5
24.0719       279200       182.49
24.0805       279300       182.48
24.0891       279400       182.47
24.0978       279500       182.46
24.1064       279600       182.45
24.115       279700       182.439
24.1236       279800       182.429
24.1322       279900       182.419
24.1409       280000       182.409
24.1495       280100       182.399
24.1581       280200       182.389
24.1667       280300       182.378
24.1754       280400       182.368
24.184       280500       182.358
24.1926       280600       182.348
24.2012       280700       182.338
24.2098       280800       182.328
24.2185       280900       182.318
24.2271       281000       182.308
24.2357       281100       182.298
24.2443       281200       182.287
24.2529       281300       182.277
24.2616       281400       182.267
24.2702       281500       182.257
24.2788       281600       182.247
24.2874       281700       182.237
24.2961       281800       182.227
24.3047       281900       182.217
24.3133       282000       182.207
24.3219       282100       182.197
24.3305       282200       182.187
24.3392       282300       182.177
24.3478       282400       182.167
24.3564       282500       182.156
24.365       282600       182.146
24.3737       282700       182.136
24.3823       282800       182.126
24.3909       282900       182.116
24.3995       283000       182.106
24.4081       283100       182.096
24.4168       283200       182.086
24.4254       283300       182.076
24.434       283400       182.066
24.4426       283500       182.056
24.4512       283600       182.046
24.4599       283700       182.036
24.4685       283800       182.026
24.4771       283900       182.016
24.4857       284000       182.006
24.4944       284100       181.996
24.503       284200       181.986
24.5116       284300       181.976
24.5202       284400       181.966
24.5288       284500       181.956
24.5375       284600       181.946
24.5461       284700       181.936
24.5547       284800       181.926
24.5633       284900       181.916
24.572       285000       181.906
24.5806       285100       181.896
24.5892       285200       181.886
24.5978       285300       181.877
24.6064       285400       181.867
24.6151       285500       181.857
24.6237       285600       181.847
24.6323       285700       181.837
24.6409       285800       181.827
24.6495       285900       181.817
24.6582       286000       181.807
24.6668       286100       181.797
24.6754       286200       181.787
24.684       286300       181.777
24.6927       286400       181.767
24.7013       286500       181.757
24.7099       286600       181.748
24.7185       286700       181.738
24.7271       286800       181.728
24.7358       286900       181.718
24.7444       287000       181.708
24.753       287100       181.698
24.7616       287200       181.688
24.7703       287300       181.678
24.7789       287400       181.669
24.7875       287500       181.659
24.7961       287600       181.649
24.8047       287700       181.639
24.8134       287800       181.629
24.822       287900       181.619
24.8306       288000       181.609
24.8392       288100       181.6
24.8478       288200       181.59
24.8565       288300       181.58
24.8651       288400       181.57
24.8737       288500       181.56
24.8823       288600       181.55
24.891       288700       181.541
24.8996       288800       181.531
24.9082       288900       181.521
24.9168       289000       181.511
24.9254       289100       181.501
24.9341       289200       181.492
24.9427       289300       181.482
24.9513       289400       181.472
24.9599       289500       181.462
24.9686       289600       181.452
24.9772       289700       181.443
24.9858       289800       181.433
24.9944       289900       181.423
25.003       290000       181.413
25.0117       290100       181.404
25.0203       290200       181.394
25.0289       290300       181.384
25.0375       290400       181.374
25.0461       290500       181.364
25.0548       290600       181.355
25.0634       290700       181.345
25.072       290800       181.335
25.0806       290900       181.326
25.0893       291000       181.316
25.0979       291100       181.306
25.1065       291200       181.296
25.1151       291300       181.287
25.1237       291400       181.277
25.1324       291500       181.267
25.141       291600       181.257
25.1496       291700       181.248
25.1582       291800       181.238
25.1669       291900       181.228
25.1755       292000       181.219
25.1841       292100       181.209
25.1927       292200       181.199
25.2013       292300       181.19
25.21       292400       181.18
25.2186       292500       181.17
25.2272       292600       181.16
25.2358       292700       181.151
25.2444       292800       181.141
25.2531       292900       181.131
25.2617       293000       181.122
25.2703       293100       181.112
25.2789       293200       181.102
25.2876       293300       181.093
25.2962       293400       181.083
25.3048       293500       181.074
25.3134       293600       181.064
25.322       293700       181.054
25.3307       293800       181.045
25.3393       293900       181.035
25.3479       294000       181.025
25.3565       294100       181.016
25.3652       294200       181.006
25.3738       294300       180.996
25.3824       294400       180.987
25.391       294500       180.977
25.3996       294600       180.968
25.4083       294700       180.958
25.4169       294800       180.948
25.4255       294900       180.939
25.4341       295000       180.929
25.4427       295100       180.92
25.4514       295200       180.91
25.46       295300       180.901
25.4686       295400       180.891
25.4772       295500       180.881
25.4859       295600       180.872
25.4945       295700       180.862
25.5031       295800       180.853
25.5117       295900       180.843
25.5203       296000       180.834
25.529       296100       180.824
25.5376       296200       180.814
25.5462       296300       180.805
25.5548       296400       180.795
25.5635       296500       180.786
25.5721       296600       180.776
25.5807       296700       180.767
25.5893       296800       180.757
25.5979       296900       180.748
25.6066       297000       180.738
25.6152       297100       180.729
25.6238       297200       180.719
25.6324       297300       180.71
25.641       297400       180.7
25.6497       297500       180.691
25.6583       297600       180.681
25.6669       297700       180.672
25.6755       297800       180.662
25.6842       297900       180.653
25.6928       298000       180.643
25.7014       298100       180.634
25.71       298200       180.624
25.7186       298300       180.615
25.7273       298400       180.605
25.7359       298500       180.596
25.7445       298600       180.586
25.7531       298700       180.577
25.7618       298800       180.567
25.7704       298900       180.558
25.779       299000       180.548
25.7876       299100       180.539
25.7962       299200       180.529
25.8049       299300       180.52
25.8135       299400       180.511
25.8221       299500       180.501
25.8307       299600       180.492
25.8393       299700       180.482
25.848       299800       180.473
25.8566       299900       180.463
25.8652       300000       180.454
25.8738       300100       180.445
25.8825       300200       180.435
25.8911       300300       180.426
25.8997       300400       180.416
25.9083       300500       180.407
25.9169       300600       180.398
25.9256       300700       180.388
25.9342       300800       180.379
25.9428       300900       180.369
25.9514       301000       180.36
25.9601       301100       180.351
25.9687       301200       180.341
25.9773       301300       180.332
25.9859       301400       180.323
25.9945       301500       180.313
26.0032       301600       180.304
26.0118       301700       180.294
26.0204       301800       180.285
26.029       301900       180.276
26.0376       302000       180.266
26.0463       302100       180.257
26.0549       302200       180.248
26.0635       302300       180.238
26.0721       302400       180.229
26.0808       302500       180.22
26.0894       302600       180.21
26.098       302700       180.201
26.1066       302800       180.192
26.1152       302900       180.182
26.1239       303000       180.173
26.1325       303100       180.164
26.1411       303200       180.154
26.1497       303300       180.145
26.1584       303400       180.136
26.167       303500       180.126
26.1756       303600       180.117
26.1842       303700       180.108
26.1928       303800       180.099
26.2015       303900       180.089
26.2101       304000       180.08
26.2187       304100       180.071
26.2273       304200       180.061
26.2359       304300       180.052
26.2446       304400       180.043
26.2532       304500       180.034
26.2618       304600       180.024
26.2704       304700       180.015
26.2791       304800       180.006
26.2877       304900       179.997
26.2963       305000       179.987
26.3049       305100       179.978
26.3135       305200       179.969
26.3222       305300       179.96
26.3308       305400       179.95
26.3394       305500       179.941
26.348       305600       179.932
26.3567       305700       179.923
26.3653       305800       179.913
26.3739       305900       179.904
26.3825       306000       179.895
26.3911       306100       179.886
26.3998       306200       179.876
26.4084       306300       179.867
26.417       306400       179.858
26.4256       306500       179.849
26.4342       306600       179.84
26.4429       306700       179.83
26.4515       306800       179.821
26.4601       306900       179.812
26.4687       307000       179.803
26.4774       307100       179.794
26.486       307200       179.785
26.4946       307300       179.775
26.5032       307400       179.766
26.5118       307500       179.757
26.5205       307600       179.748
26.5291       307700       179.739
26.5377       307800       179.729
26.5463       307900       179.72
26.555       308000       179.711
26.5636       308100       179.702
26.5722       308200       179.693
26.5808       308300       179.684
26.5894       308400       179.675
26.5981       308500       179.665
26.6067       308600       179.656
26.6153       308700       179.647
26.6239       308800       179.638
26.6325       308900       179.629
26.6412       309000       179.62
26.6498       309100       179.611
26.6584       309200       179.602
26.667       309300       179.592
26.6757       309400       179.583
26.6843       309500       179.574
26.6929       309600       179.565
26.7015       309700       179.556
26.7101       309800       179.547
26.7188       309900       179.538
26.7274       310000       179.529
26.736       310100       179.52
26.7446       310200       179.511
26.7533       310300       179.501
26.7619       310400       179.492
26.7705       310500       179.483
26.7791       310600       179.474
26.7877       310700       179.465
26.7964       310800       179.456
26.805       310900       179.447
26.8136       311000       179.438
26.8222       311100       179.429
26.8308       311200       179.42
26.8395       311300       179.411
26.8481       311400       179.402
26.8567       311500       179.393
26.8653       311600       179.384
26.874       311700       179.375
26.8826       311800       179.366
26.8912       311900       179.357
26.8998       312000       179.348
26.9084       312100       179.338
26.9171       312200       179.329
26.9257       312300       179.32
26.9343       312400       179.311
26.9429       312500       179.302
26.9516       312600       179.293
26.9602       312700       179.284
26.9688       312800       179.275
26.9774       312900       179.266
26.986       313000       179.257
26.9947       313100       179.248
27.0033       313200       179.239
27.0119       313300       179.23
27.0205       313400       179.221
27.0291       313500       179.212
27.0378       313600       179.203
27.0464       313700       179.194
27.055       313800       179.185
27.0636       313900       179.177
27.0723       314000       179.168
27.0809       314100       179.159
27.0895       314200       179.15
27.0981       314300       179.141
27.1067       314400       179.132
27.1154       314500       179.123
27.124       314600       179.114
27.1326       314700       179.105
27.1412       314800       179.096
27.1499       314900       179.087
27.1585       315000       179.078
27.1671       315100       179.069
27.1757       315200       179.06
27.1843       315300       179.051
27.193       315400       179.042
27.2016       315500       179.033
27.2102       315600       179.024
27.2188       315700       179.016
27.2274       315800       179.007
27.2361       315900       178.998
27.2447       316000       178.989
27.2533       316100       178.98
27.2619       316200       178.971
27.2706       316300       178.962
27.2792       316400       178.953
27.2878       316500       178.944
27.2964       316600       178.935
27.305       316700       178.927
27.3137       316800       178.918
27.3223       316900       178.909
27.3309       317000       178.9
27.3395       317100       178.891
27.3482       317200       178.882
27.3568       317300       178.873
27.3654       317400       178.864
27.374       317500       178.856
27.3826       317600       178.847
27.3913       317700       178.838
27.3999       317800       178.829
27.4085       317900       178.82
27.4171       318000       178.811
27.4257       318100       178.802
27.4344       318200       178.794
27.443       318300       178.785
27.4516       318400       178.776
27.4602       318500       178.767
27.4689       318600       178.758
27.4775       318700       178.749
27.4861       318800       178.741
27.4947       318900       178.732
27.5033       319000       178.723
27.512       319100       178.714
27.5206       319200       178.705
27.5292       319300       178.697
27.5378       319400       178.688
27.5465       319500       178.679
27.5551       319600       178.67
27.5637       319700       178.661
27.5723       319800       178.653
27.5809       319900       178.644
27.5896       320000       178.635
27.5982       320100       178.626
27.6068       320200       178.617
27.6154       320300       178.609
27.624       320400       178.6
27.6327       320500       178.591
27.6413       320600       178.582
27.6499       320700       178.574
27.6585       320800       178.565
27.6672       320900       178.556
27.6758       321000       178.547
27.6844       321100       178.539
27.693       321200       178.53
27.7016       321300       178.521
27.7103       321400       178.512
27.7189       321500       178.504
27.7275       321600       178.495
27.7361       321700       178.486
27.7448       321800       178.477
27.7534       321900       178.469
27.762       322000       178.46
27.7706       322100       178.451
27.7792       322200       178.442
27.7879       322300       178.434
27.7965       322400       178.425
27.8051       322500       178.416
27.8137       322600       178.408
27.8223       322700       178.399
27.831       322800       178.39
27.8396       322900       178.382
27.8482       323000       178.373
27.8568       323100       178.364
27.8655       323200       178.355
27.8741       323300       178.347
27.8827       323400       178.338
27.8913       323500       178.329
27.8999       323600       178.321
27.9086       323700       178.312
27.9172       323800       178.303
27.9258       323900       178.295
27.9344       324000       178.286
27.9431       324100       178.277
27.9517       324200       178.269
27.9603       324300       178.26
27.9689       324400       178.251
27.9775       324500       178.243
27.9862       324600       178.234
27.9948       324700       178.225
28.0034       324800       178.217
28.012       324900       178.208
28.0206       325000       178.199
28.0293       325100       178.191
28.0379       325200       178.182
28.0465       325300       178.174
28.0551       325400       178.165
28.0638       325500       178.156
28.0724       325600       178.148
28.081       325700       178.139
28.0896       325800       178.13
28.0982       325900       178.122
28.1069       326000       178.113
28.1155       326100       178.105
28.1241       326200       178.096
28.1327       326300       178.087
28.1414       326400       178.079
28.15       326500       178.07
28.1586       326600       178.062
28.1672       326700       178.053
28.1758       326800       178.044
28.1845       326900       178.036
28.1931       327000       178.027
28.2017       327100       178.019
28.2103       327200       178.01
28.2189       327300       178.002
28.2276       327400       177.993
28.2362       327500       177.984
28.2448       327600       177.976
28.2534       327700       177.967
28.2621       327800       177.959
28.2707       327900       177.95
28.2793       328000       177.942
28.2879       328100       177.933
28.2965       328200       177.924
28.3052       328300       177.916
28.3138       328400       177.907
28.3224       328500       177.899
28.331       328600       177.89
28.3397       328700       177.882
28.3483       328800       177.873
28.3569       328900       177.865
28.3655       329000       177.856
28.3741       329100       177.848
28.3828       329200       177.839
28.3914       329300       177.831
28.4       329400       177.822
28.4086       329500       177.814
28.4172       329600       177.805
28.4259       329700       177.797
28.4345       329800       177.788
28.4431       329900       177.78
28.4517       330000       177.771
28.4604       330100       177.763
28.469       330200       177.754
28.4776       330300       177.746
28.4862       330400       177.737
28.4948       330500       177.729
28.5035       330600       177.72
28.5121       330700       177.712
28.5207       330800       177.703
28.5293       330900       177.695
28.538       331000       177.686
28.5466       331100       177.678
28.5552       331200       177.669
28.5638       331300       177.661
28.5724       331400       177.652
28.5811       331500       177.644
28.5897       331600       177.635
28.5983       331700       177.627
28.6069       331800       177.619
28.6155       331900       177.61
28.6242       332000       177.602
28.6328       332100       177.593
28.6414       332200       177.585
28.65       332300       177.576
28.6587       332400       177.568
28.6673       332500       177.559
28.6759       332600       177.551
28.6845       332700       177.543
28.6931       332800       177.534
28.7018       332900       177.526
28.7104       333000       177.517
28.719       333100       177.509
28.7276       333200       177.501
28.7363       333300       177.492
28.7449       333400       177.484
28.7535       333500       177.475
28.7621       333600       177.467
28.7707       333700       177.459
28.7794       333800       177.45
28.788       333900       177.442
28.7966       334000       177.433
28.8052       334100       177.425
28.8138       334200       177.417
28.8225       334300       177.408
28.8311       334400       177.4
28.8397       334500       177.391
28.8483       334600       177.383
28.857       334700       177.375
28.8656       334800       177.366
28.8742       334900       177.358
28.8828       335000       177.35
28.8914       335100       177.341
28.9001       335200       177.333
28.9087       335300       177.325
28.9173       335400       177.316
28.9259       335500       177.308
28.9346       335600       177.299
28.9432       335700       177.291
28.9518       335800       177.283
28.9604       335900       177.274
28.969       336000       177.266
28.9777       336100       177.258
28.9863       336200       177.249
28.9949       336300       177.241
29.0035       336400       177.233
29.0121       336500       177.224
29.0208       336600       177.216
29.0294       336700       177.208
29.038       336800       177.2
29.0466       336900       177.191
29.0553       337000       177.183
29.0639       337100       177.175
29.0725       337200       177.166
29.0811       337300       177.158
29.0897       337400       177.15
29.0984       337500       177.141
29.107       337600       177.133
29.1156       337700       177.125
29.1242       337800       177.117
29.1329       337900       177.108
29.1415       338000       177.1
29.1501       338100       177.092
29.1587       338200       177.083
29.1673       338300       177.075
29.176       338400       177.067
29.1846       338500       177.059
29.1932       338600       177.05
29.2018       338700       177.042
29.2104       338800       177.034
29.2191       338900       177.026
29.2277       339000       177.017
29.2363       339100       177.009
29.2449       339200       177.001
29.2536       339300       176.993
29.2622       339400       176.984
29.2708       339500       176.976
29.2794       339600       176.968
29.288       339700       176.96
29.2967       339800       176.951
29.3053       339900       176.943
29.3139       340000       176.935
29.3225       340100       176.927
29.3312       340200       176.918
29.3398       340300       176.91
29.3484       340400       176.902
29.357       340500       176.894
29.3656       340600       176.886
29.3743       340700       176.877
29.3829       340800       176.869
29.3915       340900       176.861
29.4001       341000       176.853
29.4087       341100       176.845
29.4174       341200       176.836
29.426       341300       176.828
29.4346       341400       176.82
29.4432       341500       176.812
29.4519       341600       176.804
29.4605       341700       176.795
29.4691       341800       176.787
29.4777       341900       176.779
29.4863       342000       176.771
29.495       342100       176.763
29.5036       342200       176.754
29.5122       342300       176.746
29.5208       342400       176.738
29.5295       342500       176.73
29.5381       342600       176.722
29.5467       342700       176.714
29.5553       342800       176.705
29.5639       342900       176.697
29.5726       343000       176.689
29.5812       343100       176.681
29.5898       343200       176.673
29.5984       343300       176.665
29.607       343400       176.657
29.6157       343500       176.648
29.6243       343600       176.64
29.6329       343700       176.632
29.6415       343800       176.624
29.6502       343900       176.616
29.6588       344000       176.608
29.6674       344100       176.6
29.676       344200       176.592
29.6846       344300       176.583
29.6933       344400       176.575
29.7019       344500       176.567
29.7105       344600       176.559
29.7191       344700       176.551
29.7278       344800       176.543
29.7364       344900       176.535
29.745       345000       176.527
29.7536       345100       176.519
29.7622       345200       176.51
29.7709       345300       176.502
29.7795       345400       176.494
29.7881       345500       176.486
29.7967       345600       176.478
29.8053       345700       176.47
29.814       345800       176.462
29.8226       345900       176.454
29.8312       346000       176.446
29.8398       346100       176.438
29.8485       346200       176.43
29.8571       346300       176.422
29.8657       346400       176.414
29.8743       346500       176.405
29.8829       346600       176.397
29.8916       346700       176.389
29.9002       346800       176.381
29.9088       346900       176.373
29.9174       347000       176.365
29.9261       347100       176.357
29.9347       347200       176.349
29.9433       347300       176.341
29.9519       347400       176.333
29.9605       347500       176.325
29.9692       347600       176.317
29.9778       347700       176.309
29.9864       347800       176.301
29.995       347900       176.293
30.0036       348000       176.285
30.0123       348100       176.277
30.0209       348200       176.269
30.0295       348300       176.261
30.0381       348400       176.253
30.0468       348500       176.245
30.0554       348600       176.237
30.064       348700       176.229
30.0726       348800       176.221
30.0812       348900       176.213
30.0899       349000       176.205
30.0985       349100       176.197
30.1071       349200       176.189
30.1157       349300       176.181
30.1244       349400       176.173
30.133       349500       176.165
30.1416       349600       176.157
30.1502       349700       176.149
30.1588       349800       176.141
30.1675       349900       176.133
30.1761       350000       176.125
30.1847       350100       176.117
30.1933       350200       176.109
30.2019       350300       176.101
30.2106       350400       176.093
30.2192       350500       176.085
30.2278       350600       176.077
30.2364       350700       176.069
30.2451       350800       176.061
30.2537       350900       176.053
30.2623       351000       176.045
30.2709       351100       176.037
30.2795       351200       176.029
30.2882       351300       176.021
30.2968       351400       176.013
30.3054       351500       176.005
30.314       351600       175.998
30.3227       351700       175.99
30.3313       351800       175.982
30.3399       351900       175.974
30.3485       352000       175.966
30.3571       352100       175.958
30.3658       352200       175.95
30.3744       352300       175.942
30.383       352400       175.934
30.3916       352500       175.926
30.4002       352600       175.918
30.4089       352700       175.91
30.4175       352800       175.902
30.4261       352900       175.895
30.4347       353000       175.887
30.4434       353100       175.879
30.452       353200       175.871
30.4606       353300       175.863
30.4692       353400       175.855
30.4778       353500       175.847
30.4865       353600       175.839
30.4951       353700       175.831
30.5037       353800       175.824
30.5123       353900       175.816
30.521       354000       175.808
30.5296       354100       175.8
30.5382       354200       175.792
30.5468       354300       175.784
30.5554       354400       175.776
30.5641       354500       175.768
30.5727       354600       175.761
30.5813       354700       175.753
30.5899       354800       175.745
30.5985       354900       175.737
30.6072       355000       175.729
30.6158       355100       175.721
30.6244       355200       175.713
30.633       355300       175.706
30.6417       355400       175.698
30.6503       355500       175.69
30.6589       355600       175.682
30.6675       355700       175.674
30.6761       355800       175.666
30.6848       355900       175.659
30.6934       356000       175.651
30.702       356100       175.643
30.7106       356200       175.635
30.7193       356300       175.627
30.7279       356400       175.619
30.7365       356500       175.612
30.7451       356600       175.604
30.7537       356700       175.596
30.7624       356800       175.588
30.771       356900       175.58
30.7796       357000       175.573
30.7882       357100       175.565
30.7968       357200       175.557
30.8055       357300       175.549
30.8141       357400       175.541
30.8227       357500       175.534
30.8313       357600       175.526
30.84       357700       175.518
30.8486       357800       175.51
30.8572       357900       175.502
30.8658       358000       175.495
30.8744       358100       175.487
30.8831       358200       175.479
30.8917       358300       175.471
30.9003       358400       175.463
30.9089       358500       175.456
30.9176       358600       175.448
30.9262       358700       175.44
30.9348       358800       175.432
30.9434       358900       175.425
30.952       359000       175.417
30.9607       359100       175.409
30.9693       359200       175.401
30.9779       359300       175.394
30.9865       359400       175.386
30.9951       359500       175.378
31.0038       359600       175.37
31.0124       359700       175.363
31.021       359800       175.355
31.0296       359900       175.347
31.0383       360000       175.339
31.0469       360100       175.332
31.0555       360200       175.324
31.0641       360300       175.316
31.0727       360400       175.308
31.0814       360500       175.301
31.09       360600       175.293
31.0986       360700       175.285
31.1072       360800       175.278
31.1159       360900       175.27
31.1245       361000       175.262
31.1331       361100       175.254
31.1417       361200       175.247
31.1503       361300       175.239
31.159       361400       175.231
31.1676       361500       175.224
31.1762       361600       175.216
31.1848       361700       175.208
31.1934       361800       175.201
31.2021       361900       175.193
31.2107       362000       175.185
31.2193       362100       175.177
31.2279       362200       175.17
31.2366       362300       175.162
31.2452       362400       175.154
31.2538       362500       175.147
31.2624       362600       175.139
31.271       362700       175.131
31.2797       362800       175.124
31.2883       362900       175.116
31.2969       363000       175.108
31.3055       363100       175.101
31.3142       363200       175.093
31.3228       363300       175.085
31.3314       363400       175.078
31.34       363500       175.07
31.3486       363600       175.062
31.3573       363700       175.055
31.3659       363800       175.047
31.3745       363900       175.039
31.3831       364000       175.032
31.3917       364100       175.024
31.4004       364200       175.017
31.409       364300       175.009
31.4176       364400       175.001
31.4262       364500       174.994
31.4349       364600       174.986
31.4435       364700       174.978
31.4521       364800       174.971
31.4607       364900       174.963
31.4693       365000       174.956
31.478       365100       174.948
31.4866       365200       174.94
31.4952       365300       174.933
31.5038       365400       174.925
31.5125       365500       174.917
31.5211       365600       174.91
31.5297       365700       174.902
31.5383       365800       174.895
31.5469       365900       174.887
31.5556       366000       174.879
31.5642       366100       174.872
31.5728       366200       174.864
31.5814       366300       174.857
31.59       366400       174.849
31.5987       366500       174.841
31.6073       366600       174.834
31.6159       366700       174.826
31.6245       366800       174.819
31.6332       366900       174.811
31.6418       367000       174.804
31.6504       367100       174.796
31.659       367200       174.788
31.6676       367300       174.781
31.6763       367400       174.773
31.6849       367500       174.766
31.6935       367600       174.758
31.7021       367700       174.751
31.7108       367800       174.743
31.7194       367900       174.735
31.728       368000       174.728
31.7366       368100       174.72
31.7452       368200       174.713
31.7539       368300       174.705
31.7625       368400       174.698
31.7711       368500       174.69
31.7797       368600       174.683
31.7883       368700       174.675
31.797       368800       174.668
31.8056       368900       174.66
31.8142       369000       174.652
31.8228       369100       174.645
31.8315       369200       174.637
31.8401       369300       174.63
31.8487       369400       174.622
31.8573       369500       174.615
31.8659       369600       174.607
31.8746       369700       174.6
31.8832       369800       174.592
31.8918       369900       174.585
31.9004       370000       174.577
31.9091       370100       174.57
31.9177       370200       174.562
31.9263       370300       174.555
31.9349       370400       174.547
31.9435       370500       174.54
31.9522       370600       174.532
31.9608       370700       174.525
31.9694       370800       174.517
31.978       370900       174.51
31.9866       371000       174.502
31.9953       371100       174.495
32.0039       371200       174.487
32.0125       371300       174.48
32.0211       371400       174.472
32.0298       371500       174.465
32.0384       371600       174.457
32.047       371700       174.45
32.0556       371800       174.442
32.0642       371900       174.435
32.0729       372000       174.427
32.0815       372100       174.42
32.0901       372200       174.413
32.0987       372300       174.405
32.1074       372400       174.398
32.116       372500       174.39
32.1246       372600       174.383
32.1332       372700       174.375
32.1418       372800       174.368
32.1505       372900       174.36
32.1591       373000       174.353
32.1677       373100       174.345
32.1763       373200       174.338
32.1849       373300       174.331
32.1936       373400       174.323
32.2022       373500       174.316
32.2108       373600       174.308
32.2194       373700       174.301
32.2281       373800       174.293
32.2367       373900       174.286
32.2453       374000       174.279
32.2539       374100       174.271
32.2625       374200       174.264
32.2712       374300       174.256
32.2798       374400       174.249
32.2884       374500       174.241
32.297       374600       174.234
32.3057       374700       174.227
32.3143       374800       174.219
32.3229       374900       174.212
32.3315       375000       174.204
32.3401       375100       174.197
32.3488       375200       174.19
32.3574       375300       174.182
32.366       375400       174.175
32.3746       375500       174.167
32.3832       375600       174.16
32.3919       375700       174.153
32.4005       375800       174.145
32.4091       375900       174.138
32.4177       376000       174.131
32.4264       376100       174.123
32.435       376200       174.116
32.4436       376300       174.108
32.4522       376400       174.101
32.4608       376500       174.094
32.4695       376600       174.086
32.4781       376700       174.079
32.4867       376800       174.072
32.4953       376900       174.064
32.504       377000       174.057
32.5126       377100       174.049
32.5212       377200       174.042
32.5298       377300       174.035
32.5384       377400       174.027
32.5471       377500       174.02
32.5557       377600       174.013
32.5643       377700       174.005
32.5729       377800       173.998
32.5815       377900       173.991
32.5902       378000       173.983
32.5988       378100       173.976
32.6074       378200       173.969
32.616       378300       173.961
32.6247       378400       173.954
32.6333       378500       173.947
32.6419       378600       173.939
32.6505       378700       173.932
32.6591       378800       173.925
32.6678       378900       173.917
32.6764       379000       173.91
32.685       379100       173.903
32.6936       379200       173.895
32.7023       379300       173.888
32.7109       379400       173.881
32.7195       379500       173.873
32.7281       379600       173.866
32.7367       379700       173.859
32.7454       379800       173.852
32.754       379900       173.844
32.7626       380000       173.837
32.7712       380100       173.83
32.7798       380200       173.822
32.7885       380300       173.815
32.7971       380400       173.808
32.8057       380500       173.801
32.8143       380600       173.793
32.823       380700       173.786
32.8316       380800       173.779
32.8402       380900       173.771
32.8488       381000       173.764
32.8574       381100       173.757
32.8661       381200       173.75
32.8747       381300       173.742
32.8833       381400       173.735
32.8919       381500       173.728
32.9006       381600       173.721
32.9092       381700       173.713
32.9178       381800       173.706
32.9264       381900       173.699
32.935       382000       173.691
32.9437       382100       173.684
32.9523       382200       173.677
32.9609       382300       173.67
32.9695       382400       173.662
32.9781       382500       173.655
32.9868       382600       173.648
32.9954       382700       173.641
33.004       382800       173.633
33.0126       382900       173.626
33.0213       383000       173.619
33.0299       383100       173.612
33.0385       383200       173.605
33.0471       383300       173.597
33.0557       383400       173.59
33.0644       383500       173.583
33.073       383600       173.576
33.0816       383700       173.568
33.0902       383800       173.561
33.0989       383900       173.554
33.1075       384000       173.547
33.1161       384100       173.54
33.1247       384200       173.532
33.1333       384300       173.525
33.142       384400       173.518
33.1506       384500       173.511
33.1592       384600       173.504
33.1678       384700       173.496
33.1764       384800       173.489
33.1851       384900       173.482
33.1937       385000       173.475
33.2023       385100       173.468
33.2109       385200       173.46
33.2196       385300       173.453
33.2282       385400       173.446
33.2368       385500       173.439
33.2454       385600       173.432
33.254       385700       173.424
33.2627       385800       173.417
33.2713       385900       173.41
33.2799       386000       173.403
33.2885       386100       173.396
33.2972       386200       173.389
33.3058       386300       173.381
33.3144       386400       173.374
33.323       386500       173.367
33.3316       386600       173.36
33.3403       386700       173.353
33.3489       386800       173.346
33.3575       386900       173.338
33.3661       387000       173.331
33.3747       387100       173.324
33.3834       387200       173.317
33.392       387300       173.31
33.4006       387400       173.303
33.4092       387500       173.295
33.4179       387600       173.288
33.4265       387700       173.281
33.4351       387800       173.274
33.4437       387900       173.267
33.4523       388000       173.26
33.461       388100       173.253
33.4696       388200       173.246
33.4782       388300       173.238
33.4868       388400       173.231
33.4955       388500       173.224
33.5041       388600       173.217
33.5127       388700       173.21
33.5213       388800       173.203
33.5299       388900       173.196
33.5386       389000       173.189
33.5472       389100       173.181
33.5558       389200       173.174
33.5644       389300       173.167
33.573       389400       173.16
33.5817       389500       173.153
33.5903       389600       173.146
33.5989       389700       173.139
33.6075       389800       173.132
33.6162       389900       173.125
33.6248       390000       173.117
33.6334       390100       173.11
33.642       390200       173.103
33.6506       390300       173.096
33.6593       390400       173.089
33.6679       390500       173.082
33.6765       390600       173.075
33.6851       390700       173.068
33.6938       390800       173.061
33.7024       390900       173.054
33.711       391000       173.047
33.7196       391100       173.04
33.7282       391200       173.032
33.7369       391300       173.025
33.7455       391400       173.018
33.7541       391500       173.011
33.7627       391600       173.004
33.7713       391700       172.997
33.78       391800       172.99
33.7886       391900       172.983
33.7972       392000       172.976
33.8058       392100       172.969
33.8145       392200       172.962
33.8231       392300       172.955
33.8317       392400       172.948
33.8403       392500       172.941
33.8489       392600       172.934
33.8576       392700       172.927
33.8662       392800       172.92
33.8748       392900       172.913
33.8834       393000       172.906
33.8921       393100       172.898
33.9007       393200       172.891
33.9093       393300       172.884
33.9179       393400       172.877
33.9265       393500       172.87
33.9352       393600       172.863
33.9438       393700       172.856
33.9524       393800       172.849
33.961       393900       172.842
33.9696       394000       172.835
33.9783       394100       172.828
33.9869       394200       172.821
33.9955       394300       172.814
34.0041       394400       172.807
34.0128       394500       172.8
34.0214       394600       172.793
34.03       394700       172.786
34.0386       394800       172.779
34.0472       394900       172.772
34.0559       395000       172.765
34.0645       395100       172.758
34.0731       395200       172.751
34.0817       395300       172.744
34.0904       395400       172.737
34.099       395500       172.73
34.1076       395600       172.723
34.1162       395700       172.716
34.1248       395800       172.709
34.1335       395900       172.702
34.1421       396000       172.695
34.1507       396100       172.688
34.1593       396200       172.681
34.1679       396300       172.674
34.1766       396400       172.667
34.1852       396500       172.66
34.1938       396600       172.653
34.2024       396700       172.646
34.2111       396800       172.64
34.2197       396900       172.633
34.2283       397000       172.626
34.2369       397100       172.619
34.2455       397200       172.612
34.2542       397300       172.605
34.2628       397400       172.598
34.2714       397500       172.591
34.28       397600       172.584
34.2887       397700       172.577
34.2973       397800       172.57
34.3059       397900       172.563
34.3145       398000       172.556
34.3231       398100       172.549
34.3318       398200       172.542
34.3404       398300       172.535
34.349       398400       172.528
34.3576       398500       172.521
34.3662       398600       172.514
34.3749       398700       172.508
34.3835       398800       172.501
34.3921       398900       172.494
34.4007       399000       172.487
34.4094       399100       172.48
34.418       399200       172.473
34.4266       399300       172.466
34.4352       399400       172.459
34.4438       399500       172.452
34.4525       399600       172.445
34.4611       399700       172.438
34.4697       399800       172.431
34.4783       399900       172.425
34.487       400000       172.418
