; The collision integrals Q_{i,j}^{11} are exponential fit function obtained from 
; Transport properties of high-temperature Jupiter atmosphere components, D. Bruno, C. Catalfamo, M. Capitelli, G. Colonna, O. De Pascale et al., Phys. Plasmas 17, 112315 (2010), doi: 10.1063/1.3495980, Published by the American Institute of Physics
; 
; 
; To obtain these collision integrals, the original data (transport cross section Q^l_{i,j} or elastic collision differential cross section) are obtained from:
;
; 1) R. K. Janev, W. D. Langer, K. Evans, Jr., and D. E. Post, Jr., ElementaryProcesses in Hydrogen-Helium Plasmas Springer-Verlag, Berlin, 1987.
;
; 1 atomic unit of square distance = 2.80e-17 cm^2
; 1eV = 11604K

2.80e-17


;        E             T             Q11
;       (eV)         (K)         (a.u.)

0.0862174       1000       153.947
0.0948391       1100       147.997
0.103461       1200       142.824
0.112083       1300       138.276
0.120704       1400       134.237
0.129326       1500       130.619
0.137948       1600       127.354
0.14657       1700       124.39
0.155191       1800       121.683
0.163813       1900       119.199
0.172435       2000       116.909
0.181056       2100       114.789
0.189678       2200       112.819
0.1983       2300       110.982
0.206922       2400       109.265
0.215543       2500       107.655
0.224165       2600       106.141
0.232787       2700       104.715
0.241409       2800       103.368
0.25003       2900       102.093
0.258652       3000       100.884
0.267274       3100       99.7358
0.275896       3200       98.6433
0.284517       3300       97.6021
0.293139       3400       96.6085
0.301761       3500       95.6589
0.310383       3600       94.7503
0.319004       3700       93.8796
0.327626       3800       93.0445
0.336248       3900       92.2425
0.34487       4000       91.4716
0.353491       4100       90.7297
0.362113       4200       90.0152
0.370735       4300       89.3263
0.379356       4400       88.6616
0.387978       4500       88.0198
0.3966       4600       87.3994
0.405222       4700       86.7995
0.413843       4800       86.2187
0.422465       4900       85.6563
0.431087       5000       85.1112
0.439709       5100       84.5825
0.44833       5200       84.0695
0.456952       5300       83.5714
0.465574       5400       83.0874
0.474196       5500       82.617
0.482817       5600       82.1595
0.491439       5700       81.7143
0.500061       5800       81.2808
0.508683       5900       80.8587
0.517304       6000       80.4473
0.525926       6100       80.0462
0.534548       6200       79.6551
0.543169       6300       79.2734
0.551791       6400       78.9009
0.560413       6500       78.5371
0.569035       6600       78.1818
0.577656       6700       77.8346
0.586278       6800       77.4951
0.5949       6900       77.1632
0.603522       7000       76.8385
0.612143       7100       76.5207
0.620765       7200       76.2097
0.629387       7300       75.9052
0.638009       7400       75.6069
0.64663       7500       75.3147
0.655252       7600       75.0283
0.663874       7700       74.7476
0.672496       7800       74.4724
0.681117       7900       74.2024
0.689739       8000       73.9375
0.698361       8100       73.6777
0.706983       8200       73.4226
0.715604       8300       73.1721
0.724226       8400       72.9262
0.732848       8500       72.6847
0.741469       8600       72.4474
0.750091       8700       72.2142
0.758713       8800       71.9851
0.767335       8900       71.7598
0.775956       9000       71.5383
0.784578       9100       71.3205
0.7932       9200       71.1063
0.801822       9300       70.8955
0.810443       9400       70.6881
0.819065       9500       70.484
0.827687       9600       70.2831
0.836309       9700       70.0853
0.84493       9800       69.8905
0.853552       9900       69.6987
0.862174       10000       69.5098
0.870796       10100       69.3237
0.879417       10200       69.1403
0.888039       10300       68.9596
0.896661       10400       68.7815
0.905282       10500       68.606
0.913904       10600       68.4329
0.922526       10700       68.2622
0.931148       10800       68.0939
0.939769       10900       67.928
0.948391       11000       67.7642
0.957013       11100       67.6027
0.965635       11200       67.4433
0.974256       11300       67.2861
0.982878       11400       67.1309
0.9915       11500       66.9777
1.00012       11600       66.8265
1.00874       11700       66.6772
1.01737       11800       66.5298
1.02599       11900       66.3842
1.03461       12000       66.2404
1.04323       12100       66.0984
1.05185       12200       65.9582
1.06047       12300       65.8196
1.0691       12400       65.6827
1.07772       12500       65.5474
1.08634       12600       65.4137
1.09496       12700       65.2816
1.10358       12800       65.151
1.1122       12900       65.0219
1.12083       13000       64.8943
1.12945       13100       64.7681
1.13807       13200       64.6433
1.14669       13300       64.5199
1.15531       13400       64.3979
1.16393       13500       64.2772
1.17256       13600       64.1578
1.18118       13700       64.0398
1.1898       13800       63.9229
1.19842       13900       63.8073
1.20704       14000       63.693
1.21567       14100       63.5798
1.22429       14200       63.4678
1.23291       14300       63.357
1.24153       14400       63.2472
1.25015       14500       63.1386
1.25877       14600       63.0311
1.2674       14700       62.9247
1.27602       14800       62.8193
1.28464       14900       62.715
1.29326       15000       62.6117
1.30188       15100       62.5094
1.3105       15200       62.4081
1.31913       15300       62.3077
1.32775       15400       62.2083
1.33637       15500       62.1099
1.34499       15600       62.0123
1.35361       15700       61.9157
1.36223       15800       61.82
1.37086       15900       61.7251
1.37948       16000       61.6312
1.3881       16100       61.538
1.39672       16200       61.4457
1.40534       16300       61.3543
1.41397       16400       61.2636
1.42259       16500       61.1738
1.43121       16600       61.0847
1.43983       16700       60.9965
1.44845       16800       60.909
1.45707       16900       60.8222
1.4657       17000       60.7362
1.47432       17100       60.6509
1.48294       17200       60.5663
1.49156       17300       60.4825
1.50018       17400       60.3993
1.5088       17500       60.3169
1.51743       17600       60.2351
1.52605       17700       60.154
1.53467       17800       60.0736
1.54329       17900       59.9938
1.55191       18000       59.9146
1.56053       18100       59.8361
1.56916       18200       59.7582
1.57778       18300       59.6809
1.5864       18400       59.6043
1.59502       18500       59.5282
1.60364       18600       59.4527
1.61227       18700       59.3778
1.62089       18800       59.3035
1.62951       18900       59.2298
1.63813       19000       59.1566
1.64675       19100       59.0839
1.65537       19200       59.0119
1.664       19300       58.9403
1.67262       19400       58.8693
1.68124       19500       58.7988
1.68986       19600       58.7288
1.69848       19700       58.6594
1.7071       19800       58.5904
1.71573       19900       58.522
1.72435       20000       58.454
1.73297       20100       58.3865
1.74159       20200       58.3195
1.75021       20300       58.253
1.75883       20400       58.187
1.76746       20500       58.1214
1.77608       20600       58.0562
1.7847       20700       57.9916
1.79332       20800       57.9273
1.80194       20900       57.8635
1.81056       21000       57.8002
1.81919       21100       57.7373
1.82781       21200       57.6747
1.83643       21300       57.6127
1.84505       21400       57.551
1.85367       21500       57.4897
1.8623       21600       57.4289
1.87092       21700       57.3685
1.87954       21800       57.3084
1.88816       21900       57.2487
1.89678       22000       57.1895
1.9054       22100       57.1306
1.91403       22200       57.0721
1.92265       22300       57.0139
1.93127       22400       56.9562
1.93989       22500       56.8988
1.94851       22600       56.8417
1.95713       22700       56.7851
1.96576       22800       56.7287
1.97438       22900       56.6728
1.983       23000       56.6171
1.99162       23100       56.5619
2.00024       23200       56.5069
2.00886       23300       56.4523
2.01749       23400       56.398
2.02611       23500       56.3441
2.03473       23600       56.2905
2.04335       23700       56.2372
2.05197       23800       56.1842
2.0606       23900       56.1315
2.06922       24000       56.0792
2.07784       24100       56.0271
2.08646       24200       55.9754
2.09508       24300       55.9239
2.1037       24400       55.8728
2.11233       24500       55.8219
2.12095       24600       55.7714
2.12957       24700       55.7211
2.13819       24800       55.6711
2.14681       24900       55.6215
2.15543       25000       55.572
2.16406       25100       55.5229
2.17268       25200       55.4741
2.1813       25300       55.4255
2.18992       25400       55.3772
2.19854       25500       55.3291
2.20716       25600       55.2813
2.21579       25700       55.2338
2.22441       25800       55.1866
2.23303       25900       55.1396
2.24165       26000       55.0928
2.25027       26100       55.0463
2.2589       26200       55.0001
2.26752       26300       54.9541
2.27614       26400       54.9083
2.28476       26500       54.8628
2.29338       26600       54.8176
2.302       26700       54.7725
2.31063       26800       54.7277
2.31925       26900       54.6832
2.32787       27000       54.6389
2.33649       27100       54.5948
2.34511       27200       54.5509
2.35373       27300       54.5073
2.36236       27400       54.4639
2.37098       27500       54.4207
2.3796       27600       54.3777
2.38822       27700       54.3349
2.39684       27800       54.2924
2.40546       27900       54.2501
2.41409       28000       54.2079
2.42271       28100       54.166
2.43133       28200       54.1243
2.43995       28300       54.0828
2.44857       28400       54.0416
2.4572       28500       54.0005
2.46582       28600       53.9596
2.47444       28700       53.9189
2.48306       28800       53.8784
2.49168       28900       53.8381
2.5003       29000       53.798
2.50893       29100       53.7581
2.51755       29200       53.7184
2.52617       29300       53.6789
2.53479       29400       53.6396
2.54341       29500       53.6004
2.55203       29600       53.5615
2.56066       29700       53.5227
2.56928       29800       53.4841
2.5779       29900       53.4457
2.58652       30000       53.4074
2.59514       30100       53.3694
2.60376       30200       53.3315
2.61239       30300       53.2938
2.62101       30400       53.2562
2.62963       30500       53.2189
2.63825       30600       53.1817
2.64687       30700       53.1446
2.6555       30800       53.1078
2.66412       30900       53.0711
2.67274       31000       53.0345
2.68136       31100       52.9982
2.68998       31200       52.962
2.6986       31300       52.9259
2.70723       31400       52.89
2.71585       31500       52.8543
2.72447       31600       52.8187
2.73309       31700       52.7833
2.74171       31800       52.7481
2.75033       31900       52.7129
2.75896       32000       52.678
2.76758       32100       52.6432
2.7762       32200       52.6085
2.78482       32300       52.574
2.79344       32400       52.5397
2.80206       32500       52.5055
2.81069       32600       52.4714
2.81931       32700       52.4375
2.82793       32800       52.4037
2.83655       32900       52.3701
2.84517       33000       52.3366
2.8538       33100       52.3032
2.86242       33200       52.27
2.87104       33300       52.2369
2.87966       33400       52.204
2.88828       33500       52.1712
2.8969       33600       52.1385
2.90553       33700       52.1059
2.91415       33800       52.0735
2.92277       33900       52.0413
2.93139       34000       52.0091
2.94001       34100       51.9771
2.94863       34200       51.9452
2.95726       34300       51.9135
2.96588       34400       51.8818
2.9745       34500       51.8503
2.98312       34600       51.819
2.99174       34700       51.7877
3.00036       34800       51.7566
3.00899       34900       51.7256
3.01761       35000       51.6947
3.02623       35100       51.6639
3.03485       35200       51.6333
3.04347       35300       51.6028
3.0521       35400       51.5724
3.06072       35500       51.5421
3.06934       35600       51.5119
3.07796       35700       51.4819
3.08658       35800       51.4519
3.0952       35900       51.4221
3.10383       36000       51.3924
3.11245       36100       51.3628
3.12107       36200       51.3333
3.12969       36300       51.3039
3.13831       36400       51.2747
3.14693       36500       51.2455
3.15556       36600       51.2165
3.16418       36700       51.1875
3.1728       36800       51.1587
3.18142       36900       51.13
3.19004       37000       51.1014
3.19866       37100       51.0729
3.20729       37200       51.0445
3.21591       37300       51.0162
3.22453       37400       50.988
3.23315       37500       50.9599
3.24177       37600       50.9319
3.2504       37700       50.904
3.25902       37800       50.8762
3.26764       37900       50.8485
3.27626       38000       50.821
3.28488       38100       50.7935
3.2935       38200       50.7661
3.30213       38300       50.7388
3.31075       38400       50.7116
3.31937       38500       50.6845
3.32799       38600       50.6575
3.33661       38700       50.6306
3.34523       38800       50.6038
3.35386       38900       50.577
3.36248       39000       50.5504
3.3711       39100       50.5239
3.37972       39200       50.4974
3.38834       39300       50.4711
3.39696       39400       50.4448
3.40559       39500       50.4187
3.41421       39600       50.3926
3.42283       39700       50.3666
3.43145       39800       50.3407
3.44007       39900       50.3149
3.4487       40000       50.2892
3.45732       40100       50.2635
3.46594       40200       50.238
3.47456       40300       50.2125
3.48318       40400       50.1872
3.4918       40500       50.1619
3.50043       40600       50.1367
3.50905       40700       50.1115
3.51767       40800       50.0865
3.52629       40900       50.0615
3.53491       41000       50.0367
3.54353       41100       50.0119
3.55216       41200       49.9872
3.56078       41300       49.9625
3.5694       41400       49.938
3.57802       41500       49.9135
3.58664       41600       49.8891
3.59526       41700       49.8648
3.60389       41800       49.8406
3.61251       41900       49.8164
3.62113       42000       49.7924
3.62975       42100       49.7684
3.63837       42200       49.7445
3.647       42300       49.7206
3.65562       42400       49.6968
3.66424       42500       49.6732
3.67286       42600       49.6495
3.68148       42700       49.626
3.6901       42800       49.6025
3.69873       42900       49.5791
3.70735       43000       49.5558
3.71597       43100       49.5326
3.72459       43200       49.5094
3.73321       43300       49.4863
3.74183       43400       49.4633
3.75046       43500       49.4403
3.75908       43600       49.4174
3.7677       43700       49.3946
3.77632       43800       49.3719
3.78494       43900       49.3492
3.79356       44000       49.3266
3.80219       44100       49.3041
3.81081       44200       49.2816
3.81943       44300       49.2592
3.82805       44400       49.2369
3.83667       44500       49.2146
3.8453       44600       49.1924
3.85392       44700       49.1703
3.86254       44800       49.1482
3.87116       44900       49.1262
3.87978       45000       49.1043
3.8884       45100       49.0824
3.89703       45200       49.0606
3.90565       45300       49.0389
3.91427       45400       49.0172
3.92289       45500       48.9956
3.93151       45600       48.9741
3.94013       45700       48.9526
3.94876       45800       48.9312
3.95738       45900       48.9098
3.966       46000       48.8885
3.97462       46100       48.8673
3.98324       46200       48.8461
3.99186       46300       48.825
4.00049       46400       48.804
4.00911       46500       48.783
4.01773       46600       48.7621
4.02635       46700       48.7412
4.03497       46800       48.7204
4.0436       46900       48.6997
4.05222       47000       48.679
4.06084       47100       48.6584
4.06946       47200       48.6378
4.07808       47300       48.6173
4.0867       47400       48.5968
4.09533       47500       48.5764
4.10395       47600       48.5561
4.11257       47700       48.5358
4.12119       47800       48.5156
4.12981       47900       48.4954
4.13843       48000       48.4753
4.14706       48100       48.4553
4.15568       48200       48.4353
4.1643       48300       48.4153
4.17292       48400       48.3955
4.18154       48500       48.3756
4.19016       48600       48.3558
4.19879       48700       48.3361
4.20741       48800       48.3165
4.21603       48900       48.2968
4.22465       49000       48.2773
4.23327       49100       48.2578
4.2419       49200       48.2383
4.25052       49300       48.2189
4.25914       49400       48.1996
4.26776       49500       48.1803
4.27638       49600       48.161
4.285       49700       48.1418
4.29363       49800       48.1227
4.30225       49900       48.1036
4.31087       50000       48.0846
4.31949       50100       48.0656
4.32811       50200       48.0466
4.33673       50300       48.0277
4.34536       50400       48.0089
4.35398       50500       47.9901
4.3626       50600       47.9714
4.37122       50700       47.9527
4.37984       50800       47.934
4.38846       50900       47.9154
4.39709       51000       47.8969
4.40571       51100       47.8784
4.41433       51200       47.86
4.42295       51300       47.8416
4.43157       51400       47.8232
4.4402       51500       47.8049
4.44882       51600       47.7866
4.45744       51700       47.7684
4.46606       51800       47.7503
4.47468       51900       47.7322
4.4833       52000       47.7141
4.49193       52100       47.6961
4.50055       52200       47.6781
4.50917       52300       47.6602
4.51779       52400       47.6423
4.52641       52500       47.6244
4.53503       52600       47.6066
4.54366       52700       47.5889
4.55228       52800       47.5712
4.5609       52900       47.5535
4.56952       53000       47.5359
4.57814       53100       47.5183
4.58676       53200       47.5008
4.59539       53300       47.4833
4.60401       53400       47.4658
4.61263       53500       47.4484
4.62125       53600       47.4311
4.62987       53700       47.4138
4.6385       53800       47.3965
4.64712       53900       47.3793
4.65574       54000       47.3621
4.66436       54100       47.3449
4.67298       54200       47.3278
4.6816       54300       47.3108
4.69023       54400       47.2938
4.69885       54500       47.2768
4.70747       54600       47.2598
4.71609       54700       47.2429
4.72471       54800       47.2261
4.73333       54900       47.2093
4.74196       55000       47.1925
4.75058       55100       47.1758
4.7592       55200       47.1591
4.76782       55300       47.1424
4.77644       55400       47.1258
4.78506       55500       47.1092
4.79369       55600       47.0927
4.80231       55700       47.0762
4.81093       55800       47.0597
4.81955       55900       47.0433
4.82817       56000       47.0269
4.8368       56100       47.0106
4.84542       56200       46.9943
4.85404       56300       46.978
4.86266       56400       46.9618
4.87128       56500       46.9456
4.8799       56600       46.9295
4.88853       56700       46.9134
4.89715       56800       46.8973
4.90577       56900       46.8813
4.91439       57000       46.8653
4.92301       57100       46.8493
4.93163       57200       46.8334
4.94026       57300       46.8175
4.94888       57400       46.8016
4.9575       57500       46.7858
4.96612       57600       46.77
4.97474       57700       46.7543
4.98336       57800       46.7386
4.99199       57900       46.7229
5.00061       58000       46.7073
5.00923       58100       46.6917
5.01785       58200       46.6761
5.02647       58300       46.6606
5.03509       58400       46.6451
5.04372       58500       46.6296
5.05234       58600       46.6142
5.06096       58700       46.5988
5.06958       58800       46.5834
5.0782       58900       46.5681
5.08683       59000       46.5528
5.09545       59100       46.5375
5.10407       59200       46.5223
5.11269       59300       46.5071
5.12131       59400       46.492
5.12993       59500       46.4769
5.13856       59600       46.4618
5.14718       59700       46.4467
5.1558       59800       46.4317
5.16442       59900       46.4167
5.17304       60000       46.4018
5.18166       60100       46.3868
5.19029       60200       46.3719
5.19891       60300       46.3571
5.20753       60400       46.3423
5.21615       60500       46.3275
5.22477       60600       46.3127
5.23339       60700       46.298
5.24202       60800       46.2833
5.25064       60900       46.2686
5.25926       61000       46.254
5.26788       61100       46.2394
5.2765       61200       46.2248
5.28513       61300       46.2103
5.29375       61400       46.1958
5.30237       61500       46.1813
5.31099       61600       46.1668
5.31961       61700       46.1524
5.32823       61800       46.138
5.33686       61900       46.1237
5.34548       62000       46.1093
5.3541       62100       46.095
5.36272       62200       46.0808
5.37134       62300       46.0665
5.37996       62400       46.0523
5.38859       62500       46.0382
5.39721       62600       46.024
5.40583       62700       46.0099
5.41445       62800       45.9958
5.42307       62900       45.9818
5.43169       63000       45.9677
5.44032       63100       45.9537
5.44894       63200       45.9398
5.45756       63300       45.9258
5.46618       63400       45.9119
5.4748       63500       45.898
5.48343       63600       45.8842
5.49205       63700       45.8703
5.50067       63800       45.8565
5.50929       63900       45.8428
5.51791       64000       45.829
5.52653       64100       45.8153
5.53516       64200       45.8016
5.54378       64300       45.788
5.5524       64400       45.7743
5.56102       64500       45.7607
5.56964       64600       45.7472
5.57826       64700       45.7336
5.58689       64800       45.7201
5.59551       64900       45.7066
5.60413       65000       45.6931
5.61275       65100       45.6797
5.62137       65200       45.6663
5.62999       65300       45.6529
5.63862       65400       45.6395
5.64724       65500       45.6262
5.65586       65600       45.6129
5.66448       65700       45.5996
5.6731       65800       45.5863
5.68173       65900       45.5731
5.69035       66000       45.5599
5.69897       66100       45.5467
5.70759       66200       45.5336
5.71621       66300       45.5205
5.72483       66400       45.5074
5.73346       66500       45.4943
5.74208       66600       45.4813
5.7507       66700       45.4682
5.75932       66800       45.4552
5.76794       66900       45.4423
5.77656       67000       45.4293
5.78519       67100       45.4164
5.79381       67200       45.4035
5.80243       67300       45.3906
5.81105       67400       45.3778
5.81967       67500       45.365
5.82829       67600       45.3522
5.83692       67700       45.3394
5.84554       67800       45.3266
5.85416       67900       45.3139
5.86278       68000       45.3012
5.8714       68100       45.2886
5.88003       68200       45.2759
5.88865       68300       45.2633
5.89727       68400       45.2507
5.90589       68500       45.2381
5.91451       68600       45.2255
5.92313       68700       45.213
5.93176       68800       45.2005
5.94038       68900       45.188
5.949       69000       45.1756
5.95762       69100       45.1631
5.96624       69200       45.1507
5.97486       69300       45.1383
5.98349       69400       45.126
5.99211       69500       45.1136
6.00073       69600       45.1013
6.00935       69700       45.089
6.01797       69800       45.0767
6.02659       69900       45.0645
6.03522       70000       45.0522
6.04384       70100       45.04
6.05246       70200       45.0278
6.06108       70300       45.0157
6.0697       70400       45.0035
6.07833       70500       44.9914
6.08695       70600       44.9793
6.09557       70700       44.9673
6.10419       70800       44.9552
6.11281       70900       44.9432
6.12143       71000       44.9312
6.13006       71100       44.9192
6.13868       71200       44.9072
6.1473       71300       44.8953
6.15592       71400       44.8834
6.16454       71500       44.8715
6.17316       71600       44.8596
6.18179       71700       44.8477
6.19041       71800       44.8359
6.19903       71900       44.8241
6.20765       72000       44.8123
6.21627       72100       44.8005
6.22489       72200       44.7888
6.23352       72300       44.777
6.24214       72400       44.7653
6.25076       72500       44.7536
6.25938       72600       44.742
6.268       72700       44.7303
6.27663       72800       44.7187
6.28525       72900       44.7071
6.29387       73000       44.6955
6.30249       73100       44.684
6.31111       73200       44.6724
6.31973       73300       44.6609
6.32836       73400       44.6494
6.33698       73500       44.6379
6.3456       73600       44.6265
6.35422       73700       44.615
6.36284       73800       44.6036
6.37146       73900       44.5922
6.38009       74000       44.5808
6.38871       74100       44.5694
6.39733       74200       44.5581
6.40595       74300       44.5468
6.41457       74400       44.5355
6.42319       74500       44.5242
6.43182       74600       44.5129
6.44044       74700       44.5017
6.44906       74800       44.4905
6.45768       74900       44.4793
6.4663       75000       44.4681
6.47493       75100       44.4569
6.48355       75200       44.4458
6.49217       75300       44.4346
6.50079       75400       44.4235
6.50941       75500       44.4124
6.51803       75600       44.4014
6.52666       75700       44.3903
6.53528       75800       44.3793
6.5439       75900       44.3683
6.55252       76000       44.3573
6.56114       76100       44.3463
6.56976       76200       44.3353
6.57839       76300       44.3244
6.58701       76400       44.3135
6.59563       76500       44.3026
6.60425       76600       44.2917
6.61287       76700       44.2808
6.62149       76800       44.27
6.63012       76900       44.2591
6.63874       77000       44.2483
6.64736       77100       44.2375
6.65598       77200       44.2267
6.6646       77300       44.216
6.67323       77400       44.2052
6.68185       77500       44.1945
6.69047       77600       44.1838
6.69909       77700       44.1731
6.70771       77800       44.1625
6.71633       77900       44.1518
6.72496       78000       44.1412
6.73358       78100       44.1305
6.7422       78200       44.1199
6.75082       78300       44.1094
6.75944       78400       44.0988
6.76806       78500       44.0882
6.77669       78600       44.0777
6.78531       78700       44.0672
6.79393       78800       44.0567
6.80255       78900       44.0462
6.81117       79000       44.0358
6.81979       79100       44.0253
6.82842       79200       44.0149
6.83704       79300       44.0045
6.84566       79400       43.9941
6.85428       79500       43.9837
6.8629       79600       43.9733
6.87153       79700       43.963
6.88015       79800       43.9527
6.88877       79900       43.9424
6.89739       80000       43.9321
6.90601       80100       43.9218
6.91463       80200       43.9115
6.92326       80300       43.9013
6.93188       80400       43.891
6.9405       80500       43.8808
6.94912       80600       43.8706
6.95774       80700       43.8605
6.96636       80800       43.8503
6.97499       80900       43.8401
6.98361       81000       43.83
6.99223       81100       43.8199
7.00085       81200       43.8098
7.00947       81300       43.7997
7.01809       81400       43.7896
7.02672       81500       43.7796
7.03534       81600       43.7695
7.04396       81700       43.7595
7.05258       81800       43.7495
7.0612       81900       43.7395
7.06983       82000       43.7296
7.07845       82100       43.7196
7.08707       82200       43.7097
7.09569       82300       43.6997
7.10431       82400       43.6898
7.11293       82500       43.6799
7.12156       82600       43.67
7.13018       82700       43.6602
7.1388       82800       43.6503
7.14742       82900       43.6405
7.15604       83000       43.6307
7.16466       83100       43.6209
7.17329       83200       43.6111
7.18191       83300       43.6013
7.19053       83400       43.5915
7.19915       83500       43.5818
7.20777       83600       43.572
7.21639       83700       43.5623
7.22502       83800       43.5526
7.23364       83900       43.5429
7.24226       84000       43.5333
7.25088       84100       43.5236
7.2595       84200       43.514
7.26813       84300       43.5043
7.27675       84400       43.4947
7.28537       84500       43.4851
7.29399       84600       43.4755
7.30261       84700       43.466
7.31123       84800       43.4564
7.31986       84900       43.4469
7.32848       85000       43.4374
7.3371       85100       43.4278
7.34572       85200       43.4183
7.35434       85300       43.4089
7.36296       85400       43.3994
7.37159       85500       43.3899
7.38021       85600       43.3805
7.38883       85700       43.3711
7.39745       85800       43.3616
7.40607       85900       43.3522
7.41469       86000       43.3429
7.42332       86100       43.3335
7.43194       86200       43.3241
7.44056       86300       43.3148
7.44918       86400       43.3055
7.4578       86500       43.2961
7.46643       86600       43.2868
7.47505       86700       43.2775
7.48367       86800       43.2683
7.49229       86900       43.259
7.50091       87000       43.2498
7.50953       87100       43.2405
7.51816       87200       43.2313
7.52678       87300       43.2221
7.5354       87400       43.2129
7.54402       87500       43.2037
7.55264       87600       43.1945
7.56126       87700       43.1854
7.56989       87800       43.1763
7.57851       87900       43.1671
7.58713       88000       43.158
7.59575       88100       43.1489
7.60437       88200       43.1398
7.61299       88300       43.1307
7.62162       88400       43.1217
7.63024       88500       43.1126
7.63886       88600       43.1036
7.64748       88700       43.0946
7.6561       88800       43.0856
7.66473       88900       43.0766
7.67335       89000       43.0676
7.68197       89100       43.0586
7.69059       89200       43.0496
7.69921       89300       43.0407
7.70783       89400       43.0318
7.71646       89500       43.0228
7.72508       89600       43.0139
7.7337       89700       43.005
7.74232       89800       42.9962
7.75094       89900       42.9873
7.75956       90000       42.9784
7.76819       90100       42.9696
7.77681       90200       42.9607
7.78543       90300       42.9519
7.79405       90400       42.9431
7.80267       90500       42.9343
7.81129       90600       42.9255
7.81992       90700       42.9168
7.82854       90800       42.908
7.83716       90900       42.8993
7.84578       91000       42.8905
7.8544       91100       42.8818
7.86303       91200       42.8731
7.87165       91300       42.8644
7.88027       91400       42.8557
7.88889       91500       42.847
7.89751       91600       42.8384
7.90613       91700       42.8297
7.91476       91800       42.8211
7.92338       91900       42.8124
7.932       92000       42.8038
7.94062       92100       42.7952
7.94924       92200       42.7866
7.95786       92300       42.7781
7.96649       92400       42.7695
7.97511       92500       42.7609
7.98373       92600       42.7524
7.99235       92700       42.7439
8.00097       92800       42.7353
8.00959       92900       42.7268
8.01822       93000       42.7183
8.02684       93100       42.7098
8.03546       93200       42.7014
8.04408       93300       42.6929
8.0527       93400       42.6845
8.06133       93500       42.676
8.06995       93600       42.6676
8.07857       93700       42.6592
8.08719       93800       42.6508
8.09581       93900       42.6424
8.10443       94000       42.634
8.11306       94100       42.6256
8.12168       94200       42.6172
8.1303       94300       42.6089
8.13892       94400       42.6006
8.14754       94500       42.5922
8.15616       94600       42.5839
8.16479       94700       42.5756
8.17341       94800       42.5673
8.18203       94900       42.559
8.19065       95000       42.5508
8.19927       95100       42.5425
8.20789       95200       42.5343
8.21652       95300       42.526
8.22514       95400       42.5178
8.23376       95500       42.5096
8.24238       95600       42.5014
8.251       95700       42.4932
8.25963       95800       42.485
8.26825       95900       42.4768
8.27687       96000       42.4686
8.28549       96100       42.4605
8.29411       96200       42.4524
8.30273       96300       42.4442
8.31136       96400       42.4361
8.31998       96500       42.428
8.3286       96600       42.4199
8.33722       96700       42.4118
8.34584       96800       42.4037
8.35446       96900       42.3957
8.36309       97000       42.3876
8.37171       97100       42.3796
8.38033       97200       42.3715
8.38895       97300       42.3635
8.39757       97400       42.3555
8.40619       97500       42.3475
8.41482       97600       42.3395
8.42344       97700       42.3315
8.43206       97800       42.3235
8.44068       97900       42.3156
8.4493       98000       42.3076
8.45792       98100       42.2997
8.46655       98200       42.2917
8.47517       98300       42.2838
8.48379       98400       42.2759
8.49241       98500       42.268
8.50103       98600       42.2601
8.50966       98700       42.2522
8.51828       98800       42.2443
8.5269       98900       42.2365
8.53552       99000       42.2286
8.54414       99100       42.2208
8.55276       99200       42.213
8.56139       99300       42.2051
8.57001       99400       42.1973
8.57863       99500       42.1895
8.58725       99600       42.1817
8.59587       99700       42.1739
8.60449       99800       42.1662
8.61312       99900       42.1584
8.62174       100000       42.1506
8.63036       100100       42.1429
8.63898       100200       42.1352
8.6476       100300       42.1274
8.65622       100400       42.1197
8.66485       100500       42.112
8.67347       100600       42.1043
8.68209       100700       42.0966
8.69071       100800       42.089
8.69933       100900       42.0813
8.70796       101000       42.0736
8.71658       101100       42.066
8.7252       101200       42.0584
8.73382       101300       42.0507
8.74244       101400       42.0431
8.75106       101500       42.0355
8.75969       101600       42.0279
8.76831       101700       42.0203
8.77693       101800       42.0127
8.78555       101900       42.0052
8.79417       102000       41.9976
8.80279       102100       41.99
8.81142       102200       41.9825
8.82004       102300       41.975
8.82866       102400       41.9674
8.83728       102500       41.9599
8.8459       102600       41.9524
8.85452       102700       41.9449
8.86315       102800       41.9374
8.87177       102900       41.93
8.88039       103000       41.9225
8.88901       103100       41.915
8.89763       103200       41.9076
8.90626       103300       41.9001
8.91488       103400       41.8927
8.9235       103500       41.8853
8.93212       103600       41.8778
8.94074       103700       41.8704
8.94936       103800       41.863
8.95799       103900       41.8557
8.96661       104000       41.8483
8.97523       104100       41.8409
8.98385       104200       41.8335
8.99247       104300       41.8262
9.00109       104400       41.8188
9.00972       104500       41.8115
9.01834       104600       41.8042
9.02696       104700       41.7969
9.03558       104800       41.7895
9.0442       104900       41.7822
9.05282       105000       41.775
9.06145       105100       41.7677
9.07007       105200       41.7604
9.07869       105300       41.7531
9.08731       105400       41.7459
9.09593       105500       41.7386
9.10456       105600       41.7314
9.11318       105700       41.7242
9.1218       105800       41.7169
9.13042       105900       41.7097
9.13904       106000       41.7025
9.14766       106100       41.6953
9.15629       106200       41.6881
9.16491       106300       41.6809
9.17353       106400       41.6738
9.18215       106500       41.6666
9.19077       106600       41.6594
9.19939       106700       41.6523
9.20802       106800       41.6452
9.21664       106900       41.638
9.22526       107000       41.6309
9.23388       107100       41.6238
9.2425       107200       41.6167
9.25112       107300       41.6096
9.25975       107400       41.6025
9.26837       107500       41.5954
9.27699       107600       41.5884
9.28561       107700       41.5813
9.29423       107800       41.5742
9.30286       107900       41.5672
9.31148       108000       41.5601
9.3201       108100       41.5531
9.32872       108200       41.5461
9.33734       108300       41.5391
9.34596       108400       41.5321
9.35459       108500       41.5251
9.36321       108600       41.5181
9.37183       108700       41.5111
9.38045       108800       41.5041
9.38907       108900       41.4972
9.39769       109000       41.4902
9.40632       109100       41.4833
9.41494       109200       41.4763
9.42356       109300       41.4694
9.43218       109400       41.4624
9.4408       109500       41.4555
9.44942       109600       41.4486
9.45805       109700       41.4417
9.46667       109800       41.4348
9.47529       109900       41.4279
9.48391       110000       41.4211
9.49253       110100       41.4142
9.50116       110200       41.4073
9.50978       110300       41.4005
9.5184       110400       41.3936
9.52702       110500       41.3868
9.53564       110600       41.3799
9.54426       110700       41.3731
9.55289       110800       41.3663
9.56151       110900       41.3595
9.57013       111000       41.3527
9.57875       111100       41.3459
9.58737       111200       41.3391
9.59599       111300       41.3323
9.60462       111400       41.3256
9.61324       111500       41.3188
9.62186       111600       41.312
9.63048       111700       41.3053
9.6391       111800       41.2985
9.64772       111900       41.2918
9.65635       112000       41.2851
9.66497       112100       41.2784
9.67359       112200       41.2716
9.68221       112300       41.2649
9.69083       112400       41.2582
9.69946       112500       41.2516
9.70808       112600       41.2449
9.7167       112700       41.2382
9.72532       112800       41.2315
9.73394       112900       41.2249
9.74256       113000       41.2182
9.75119       113100       41.2116
9.75981       113200       41.2049
9.76843       113300       41.1983
9.77705       113400       41.1917
9.78567       113500       41.1851
9.79429       113600       41.1785
9.80292       113700       41.1719
9.81154       113800       41.1653
9.82016       113900       41.1587
9.82878       114000       41.1521
9.8374       114100       41.1455
9.84602       114200       41.139
9.85465       114300       41.1324
9.86327       114400       41.1259
9.87189       114500       41.1193
9.88051       114600       41.1128
9.88913       114700       41.1062
9.89776       114800       41.0997
9.90638       114900       41.0932
9.915       115000       41.0867
9.92362       115100       41.0802
9.93224       115200       41.0737
9.94086       115300       41.0672
9.94949       115400       41.0607
9.95811       115500       41.0543
9.96673       115600       41.0478
9.97535       115700       41.0413
9.98397       115800       41.0349
9.99259       115900       41.0284
10.0012       116000       41.022
10.0098       116100       41.0156
10.0185       116200       41.0091
10.0271       116300       41.0027
10.0357       116400       40.9963
10.0443       116500       40.9899
10.0529       116600       40.9835
10.0616       116700       40.9771
10.0702       116800       40.9707
10.0788       116900       40.9644
10.0874       117000       40.958
10.0961       117100       40.9516
10.1047       117200       40.9453
10.1133       117300       40.9389
10.1219       117400       40.9326
10.1305       117500       40.9262
10.1392       117600       40.9199
10.1478       117700       40.9136
10.1564       117800       40.9073
10.165       117900       40.901
10.1737       118000       40.8947
10.1823       118100       40.8884
10.1909       118200       40.8821
10.1995       118300       40.8758
10.2081       118400       40.8695
10.2168       118500       40.8632
10.2254       118600       40.857
10.234       118700       40.8507
10.2426       118800       40.8445
10.2512       118900       40.8382
10.2599       119000       40.832
10.2685       119100       40.8258
10.2771       119200       40.8195
10.2857       119300       40.8133
10.2944       119400       40.8071
10.303       119500       40.8009
10.3116       119600       40.7947
10.3202       119700       40.7885
10.3288       119800       40.7823
10.3375       119900       40.7761
10.3461       120000       40.77
10.3547       120100       40.7638
10.3633       120200       40.7576
10.372       120300       40.7515
10.3806       120400       40.7453
10.3892       120500       40.7392
10.3978       120600       40.7331
10.4064       120700       40.7269
10.4151       120800       40.7208
10.4237       120900       40.7147
10.4323       121000       40.7086
10.4409       121100       40.7025
10.4495       121200       40.6964
10.4582       121300       40.6903
10.4668       121400       40.6842
10.4754       121500       40.6781
10.484       121600       40.6721
10.4927       121700       40.666
10.5013       121800       40.6599
10.5099       121900       40.6539
10.5185       122000       40.6478
10.5271       122100       40.6418
10.5358       122200       40.6358
10.5444       122300       40.6297
10.553       122400       40.6237
10.5616       122500       40.6177
10.5703       122600       40.6117
10.5789       122700       40.6057
10.5875       122800       40.5997
10.5961       122900       40.5937
10.6047       123000       40.5877
10.6134       123100       40.5817
10.622       123200       40.5757
10.6306       123300       40.5698
10.6392       123400       40.5638
10.6478       123500       40.5579
10.6565       123600       40.5519
10.6651       123700       40.546
10.6737       123800       40.54
10.6823       123900       40.5341
10.691       124000       40.5282
10.6996       124100       40.5222
10.7082       124200       40.5163
10.7168       124300       40.5104
10.7254       124400       40.5045
10.7341       124500       40.4986
10.7427       124600       40.4927
10.7513       124700       40.4868
10.7599       124800       40.481
10.7686       124900       40.4751
10.7772       125000       40.4692
10.7858       125100       40.4634
10.7944       125200       40.4575
10.803       125300       40.4517
10.8117       125400       40.4458
10.8203       125500       40.44
10.8289       125600       40.4341
10.8375       125700       40.4283
10.8461       125800       40.4225
10.8548       125900       40.4167
10.8634       126000       40.4109
10.872       126100       40.4051
10.8806       126200       40.3993
10.8893       126300       40.3935
10.8979       126400       40.3877
10.9065       126500       40.3819
10.9151       126600       40.3761
10.9237       126700       40.3703
10.9324       126800       40.3646
10.941       126900       40.3588
10.9496       127000       40.3531
10.9582       127100       40.3473
10.9669       127200       40.3416
10.9755       127300       40.3358
10.9841       127400       40.3301
10.9927       127500       40.3244
11.0013       127600       40.3187
11.01       127700       40.3129
11.0186       127800       40.3072
11.0272       127900       40.3015
11.0358       128000       40.2958
11.0444       128100       40.2901
11.0531       128200       40.2845
11.0617       128300       40.2788
11.0703       128400       40.2731
11.0789       128500       40.2674
11.0876       128600       40.2618
11.0962       128700       40.2561
11.1048       128800       40.2504
11.1134       128900       40.2448
11.122       129000       40.2392
11.1307       129100       40.2335
11.1393       129200       40.2279
11.1479       129300       40.2223
11.1565       129400       40.2166
11.1652       129500       40.211
11.1738       129600       40.2054
11.1824       129700       40.1998
11.191       129800       40.1942
11.1996       129900       40.1886
11.2083       130000       40.183
11.2169       130100       40.1774
11.2255       130200       40.1718
11.2341       130300       40.1663
11.2427       130400       40.1607
11.2514       130500       40.1551
11.26       130600       40.1496
11.2686       130700       40.144
11.2772       130800       40.1385
11.2859       130900       40.1329
11.2945       131000       40.1274
11.3031       131100       40.1219
11.3117       131200       40.1163
11.3203       131300       40.1108
11.329       131400       40.1053
11.3376       131500       40.0998
11.3462       131600       40.0943
11.3548       131700       40.0888
11.3635       131800       40.0833
11.3721       131900       40.0778
11.3807       132000       40.0723
11.3893       132100       40.0668
11.3979       132200       40.0613
11.4066       132300       40.0559
11.4152       132400       40.0504
11.4238       132500       40.0449
11.4324       132600       40.0395
11.441       132700       40.034
11.4497       132800       40.0286
11.4583       132900       40.0232
11.4669       133000       40.0177
11.4755       133100       40.0123
11.4842       133200       40.0069
11.4928       133300       40.0014
11.5014       133400       39.996
11.51       133500       39.9906
11.5186       133600       39.9852
11.5273       133700       39.9798
11.5359       133800       39.9744
11.5445       133900       39.969
11.5531       134000       39.9636
11.5618       134100       39.9583
11.5704       134200       39.9529
11.579       134300       39.9475
11.5876       134400       39.9422
11.5962       134500       39.9368
11.6049       134600       39.9314
11.6135       134700       39.9261
11.6221       134800       39.9207
11.6307       134900       39.9154
11.6393       135000       39.9101
11.648       135100       39.9047
11.6566       135200       39.8994
11.6652       135300       39.8941
11.6738       135400       39.8888
11.6825       135500       39.8835
11.6911       135600       39.8781
11.6997       135700       39.8728
11.7083       135800       39.8675
11.7169       135900       39.8623
11.7256       136000       39.857
11.7342       136100       39.8517
11.7428       136200       39.8464
11.7514       136300       39.8411
11.7601       136400       39.8359
11.7687       136500       39.8306
11.7773       136600       39.8253
11.7859       136700       39.8201
11.7945       136800       39.8148
11.8032       136900       39.8096
11.8118       137000       39.8043
11.8204       137100       39.7991
11.829       137200       39.7939
11.8376       137300       39.7887
11.8463       137400       39.7834
11.8549       137500       39.7782
11.8635       137600       39.773
11.8721       137700       39.7678
11.8808       137800       39.7626
11.8894       137900       39.7574
11.898       138000       39.7522
11.9066       138100       39.747
11.9152       138200       39.7418
11.9239       138300       39.7366
11.9325       138400       39.7315
11.9411       138500       39.7263
11.9497       138600       39.7211
11.9584       138700       39.716
11.967       138800       39.7108
11.9756       138900       39.7057
11.9842       139000       39.7005
11.9928       139100       39.6954
12.0015       139200       39.6902
12.0101       139300       39.6851
12.0187       139400       39.68
12.0273       139500       39.6748
12.0359       139600       39.6697
12.0446       139700       39.6646
12.0532       139800       39.6595
12.0618       139900       39.6544
12.0704       140000       39.6493
12.0791       140100       39.6442
12.0877       140200       39.6391
12.0963       140300       39.634
12.1049       140400       39.6289
12.1135       140500       39.6238
12.1222       140600       39.6188
12.1308       140700       39.6137
12.1394       140800       39.6086
12.148       140900       39.6036
12.1567       141000       39.5985
12.1653       141100       39.5934
12.1739       141200       39.5884
12.1825       141300       39.5834
12.1911       141400       39.5783
12.1998       141500       39.5733
12.2084       141600       39.5682
12.217       141700       39.5632
12.2256       141800       39.5582
12.2342       141900       39.5532
12.2429       142000       39.5482
12.2515       142100       39.5431
12.2601       142200       39.5381
12.2687       142300       39.5331
12.2774       142400       39.5281
12.286       142500       39.5231
12.2946       142600       39.5182
12.3032       142700       39.5132
12.3118       142800       39.5082
12.3205       142900       39.5032
12.3291       143000       39.4982
12.3377       143100       39.4933
12.3463       143200       39.4883
12.355       143300       39.4834
12.3636       143400       39.4784
12.3722       143500       39.4734
12.3808       143600       39.4685
12.3894       143700       39.4636
12.3981       143800       39.4586
12.4067       143900       39.4537
12.4153       144000       39.4488
12.4239       144100       39.4438
12.4325       144200       39.4389
12.4412       144300       39.434
12.4498       144400       39.4291
12.4584       144500       39.4242
12.467       144600       39.4193
12.4757       144700       39.4144
12.4843       144800       39.4095
12.4929       144900       39.4046
12.5015       145000       39.3997
12.5101       145100       39.3948
12.5188       145200       39.3899
12.5274       145300       39.3851
12.536       145400       39.3802
12.5446       145500       39.3753
12.5533       145600       39.3705
12.5619       145700       39.3656
12.5705       145800       39.3607
12.5791       145900       39.3559
12.5877       146000       39.351
12.5964       146100       39.3462
12.605       146200       39.3414
12.6136       146300       39.3365
12.6222       146400       39.3317
12.6308       146500       39.3269
12.6395       146600       39.322
12.6481       146700       39.3172
12.6567       146800       39.3124
12.6653       146900       39.3076
12.674       147000       39.3028
12.6826       147100       39.298
12.6912       147200       39.2932
12.6998       147300       39.2884
12.7084       147400       39.2836
12.7171       147500       39.2788
12.7257       147600       39.274
12.7343       147700       39.2693
12.7429       147800       39.2645
12.7516       147900       39.2597
12.7602       148000       39.2549
12.7688       148100       39.2502
12.7774       148200       39.2454
12.786       148300       39.2407
12.7947       148400       39.2359
12.8033       148500       39.2312
12.8119       148600       39.2264
12.8205       148700       39.2217
12.8291       148800       39.217
12.8378       148900       39.2122
12.8464       149000       39.2075
12.855       149100       39.2028
12.8636       149200       39.1981
12.8723       149300       39.1933
12.8809       149400       39.1886
12.8895       149500       39.1839
12.8981       149600       39.1792
12.9067       149700       39.1745
12.9154       149800       39.1698
12.924       149900       39.1651
12.9326       150000       39.1604
12.9412       150100       39.1557
12.9499       150200       39.1511
12.9585       150300       39.1464
12.9671       150400       39.1417
12.9757       150500       39.137
12.9843       150600       39.1324
12.993       150700       39.1277
13.0016       150800       39.1231
13.0102       150900       39.1184
13.0188       151000       39.1137
13.0274       151100       39.1091
13.0361       151200       39.1045
13.0447       151300       39.0998
13.0533       151400       39.0952
13.0619       151500       39.0905
13.0706       151600       39.0859
13.0792       151700       39.0813
13.0878       151800       39.0767
13.0964       151900       39.0721
13.105       152000       39.0674
13.1137       152100       39.0628
13.1223       152200       39.0582
13.1309       152300       39.0536
13.1395       152400       39.049
13.1482       152500       39.0444
13.1568       152600       39.0398
13.1654       152700       39.0352
13.174       152800       39.0307
13.1826       152900       39.0261
13.1913       153000       39.0215
13.1999       153100       39.0169
13.2085       153200       39.0124
13.2171       153300       39.0078
13.2257       153400       39.0032
13.2344       153500       38.9987
13.243       153600       38.9941
13.2516       153700       38.9896
13.2602       153800       38.985
13.2689       153900       38.9805
13.2775       154000       38.9759
13.2861       154100       38.9714
13.2947       154200       38.9669
13.3033       154300       38.9623
13.312       154400       38.9578
13.3206       154500       38.9533
13.3292       154600       38.9488
13.3378       154700       38.9442
13.3465       154800       38.9397
13.3551       154900       38.9352
13.3637       155000       38.9307
13.3723       155100       38.9262
13.3809       155200       38.9217
13.3896       155300       38.9172
13.3982       155400       38.9127
13.4068       155500       38.9082
13.4154       155600       38.9038
13.424       155700       38.8993
13.4327       155800       38.8948
13.4413       155900       38.8903
13.4499       156000       38.8859
13.4585       156100       38.8814
13.4672       156200       38.8769
13.4758       156300       38.8725
13.4844       156400       38.868
13.493       156500       38.8636
13.5016       156600       38.8591
13.5103       156700       38.8547
13.5189       156800       38.8502
13.5275       156900       38.8458
13.5361       157000       38.8413
13.5448       157100       38.8369
13.5534       157200       38.8325
13.562       157300       38.8281
13.5706       157400       38.8236
13.5792       157500       38.8192
13.5879       157600       38.8148
13.5965       157700       38.8104
13.6051       157800       38.806
13.6137       157900       38.8016
13.6223       158000       38.7972
13.631       158100       38.7928
13.6396       158200       38.7884
13.6482       158300       38.784
13.6568       158400       38.7796
13.6655       158500       38.7752
13.6741       158600       38.7708
13.6827       158700       38.7665
13.6913       158800       38.7621
13.6999       158900       38.7577
13.7086       159000       38.7534
13.7172       159100       38.749
13.7258       159200       38.7446
13.7344       159300       38.7403
13.7431       159400       38.7359
13.7517       159500       38.7316
13.7603       159600       38.7272
13.7689       159700       38.7229
13.7775       159800       38.7185
13.7862       159900       38.7142
13.7948       160000       38.7099
13.8034       160100       38.7055
13.812       160200       38.7012
13.8206       160300       38.6969
13.8293       160400       38.6926
13.8379       160500       38.6882
13.8465       160600       38.6839
13.8551       160700       38.6796
13.8638       160800       38.6753
13.8724       160900       38.671
13.881       161000       38.6667
13.8896       161100       38.6624
13.8982       161200       38.6581
13.9069       161300       38.6538
13.9155       161400       38.6495
13.9241       161500       38.6452
13.9327       161600       38.641
13.9414       161700       38.6367
13.95       161800       38.6324
13.9586       161900       38.6281
13.9672       162000       38.6239
13.9758       162100       38.6196
13.9845       162200       38.6153
13.9931       162300       38.6111
14.0017       162400       38.6068
14.0103       162500       38.6026
14.0189       162600       38.5983
14.0276       162700       38.5941
14.0362       162800       38.5898
14.0448       162900       38.5856
14.0534       163000       38.5813
14.0621       163100       38.5771
14.0707       163200       38.5729
14.0793       163300       38.5687
14.0879       163400       38.5644
14.0965       163500       38.5602
14.1052       163600       38.556
14.1138       163700       38.5518
14.1224       163800       38.5476
14.131       163900       38.5433
14.1397       164000       38.5391
14.1483       164100       38.5349
14.1569       164200       38.5307
14.1655       164300       38.5265
14.1741       164400       38.5223
14.1828       164500       38.5182
14.1914       164600       38.514
14.2       164700       38.5098
14.2086       164800       38.5056
14.2172       164900       38.5014
14.2259       165000       38.4973
14.2345       165100       38.4931
14.2431       165200       38.4889
14.2517       165300       38.4847
14.2604       165400       38.4806
14.269       165500       38.4764
14.2776       165600       38.4723
14.2862       165700       38.4681
14.2948       165800       38.464
14.3035       165900       38.4598
14.3121       166000       38.4557
14.3207       166100       38.4515
14.3293       166200       38.4474
14.338       166300       38.4433
14.3466       166400       38.4391
14.3552       166500       38.435
14.3638       166600       38.4309
14.3724       166700       38.4267
14.3811       166800       38.4226
14.3897       166900       38.4185
14.3983       167000       38.4144
14.4069       167100       38.4103
14.4155       167200       38.4062
14.4242       167300       38.4021
14.4328       167400       38.398
14.4414       167500       38.3939
14.45       167600       38.3898
14.4587       167700       38.3857
14.4673       167800       38.3816
14.4759       167900       38.3775
14.4845       168000       38.3734
14.4931       168100       38.3693
14.5018       168200       38.3652
14.5104       168300       38.3612
14.519       168400       38.3571
14.5276       168500       38.353
14.5363       168600       38.349
14.5449       168700       38.3449
14.5535       168800       38.3408
14.5621       168900       38.3368
14.5707       169000       38.3327
14.5794       169100       38.3287
14.588       169200       38.3246
14.5966       169300       38.3206
14.6052       169400       38.3165
14.6138       169500       38.3125
14.6225       169600       38.3084
14.6311       169700       38.3044
14.6397       169800       38.3004
14.6483       169900       38.2963
14.657       170000       38.2923
14.6656       170100       38.2883
14.6742       170200       38.2843
14.6828       170300       38.2803
14.6914       170400       38.2762
14.7001       170500       38.2722
14.7087       170600       38.2682
14.7173       170700       38.2642
14.7259       170800       38.2602
14.7346       170900       38.2562
14.7432       171000       38.2522
14.7518       171100       38.2482
14.7604       171200       38.2442
14.769       171300       38.2402
14.7777       171400       38.2362
14.7863       171500       38.2323
14.7949       171600       38.2283
14.8035       171700       38.2243
14.8121       171800       38.2203
14.8208       171900       38.2164
14.8294       172000       38.2124
14.838       172100       38.2084
14.8466       172200       38.2045
14.8553       172300       38.2005
14.8639       172400       38.1965
14.8725       172500       38.1926
14.8811       172600       38.1886
14.8897       172700       38.1847
14.8984       172800       38.1807
14.907       172900       38.1768
14.9156       173000       38.1728
14.9242       173100       38.1689
14.9329       173200       38.165
14.9415       173300       38.161
14.9501       173400       38.1571
14.9587       173500       38.1532
14.9673       173600       38.1492
14.976       173700       38.1453
14.9846       173800       38.1414
14.9932       173900       38.1375
15.0018       174000       38.1336
15.0104       174100       38.1297
15.0191       174200       38.1257
15.0277       174300       38.1218
15.0363       174400       38.1179
15.0449       174500       38.114
15.0536       174600       38.1101
15.0622       174700       38.1062
15.0708       174800       38.1023
15.0794       174900       38.0985
15.088       175000       38.0946
15.0967       175100       38.0907
15.1053       175200       38.0868
15.1139       175300       38.0829
15.1225       175400       38.079
15.1312       175500       38.0752
15.1398       175600       38.0713
15.1484       175700       38.0674
15.157       175800       38.0636
15.1656       175900       38.0597
15.1743       176000       38.0558
15.1829       176100       38.052
15.1915       176200       38.0481
15.2001       176300       38.0443
15.2087       176400       38.0404
15.2174       176500       38.0366
15.226       176600       38.0327
15.2346       176700       38.0289
15.2432       176800       38.025
15.2519       176900       38.0212
15.2605       177000       38.0174
15.2691       177100       38.0135
15.2777       177200       38.0097
15.2863       177300       38.0059
15.295       177400       38.0021
15.3036       177500       37.9982
15.3122       177600       37.9944
15.3208       177700       37.9906
15.3295       177800       37.9868
15.3381       177900       37.983
15.3467       178000       37.9792
15.3553       178100       37.9754
15.3639       178200       37.9716
15.3726       178300       37.9678
15.3812       178400       37.964
15.3898       178500       37.9602
15.3984       178600       37.9564
15.407       178700       37.9526
15.4157       178800       37.9488
15.4243       178900       37.945
15.4329       179000       37.9412
15.4415       179100       37.9374
15.4502       179200       37.9337
15.4588       179300       37.9299
15.4674       179400       37.9261
15.476       179500       37.9223
15.4846       179600       37.9186
15.4933       179700       37.9148
15.5019       179800       37.911
15.5105       179900       37.9073
15.5191       180000       37.9035
15.5278       180100       37.8998
15.5364       180200       37.896
15.545       180300       37.8923
15.5536       180400       37.8885
15.5622       180500       37.8848
15.5709       180600       37.881
15.5795       180700       37.8773
15.5881       180800       37.8736
15.5967       180900       37.8698
15.6053       181000       37.8661
15.614       181100       37.8624
15.6226       181200       37.8586
15.6312       181300       37.8549
15.6398       181400       37.8512
15.6485       181500       37.8475
15.6571       181600       37.8437
15.6657       181700       37.84
15.6743       181800       37.8363
15.6829       181900       37.8326
15.6916       182000       37.8289
15.7002       182100       37.8252
15.7088       182200       37.8215
15.7174       182300       37.8178
15.7261       182400       37.8141
15.7347       182500       37.8104
15.7433       182600       37.8067
15.7519       182700       37.803
15.7605       182800       37.7993
15.7692       182900       37.7956
15.7778       183000       37.792
15.7864       183100       37.7883
15.795       183200       37.7846
15.8036       183300       37.7809
15.8123       183400       37.7772
15.8209       183500       37.7736
15.8295       183600       37.7699
15.8381       183700       37.7662
15.8468       183800       37.7626
15.8554       183900       37.7589
15.864       184000       37.7553
15.8726       184100       37.7516
15.8812       184200       37.7479
15.8899       184300       37.7443
15.8985       184400       37.7406
15.9071       184500       37.737
15.9157       184600       37.7333
15.9244       184700       37.7297
15.933       184800       37.7261
15.9416       184900       37.7224
15.9502       185000       37.7188
15.9588       185100       37.7152
15.9675       185200       37.7115
15.9761       185300       37.7079
15.9847       185400       37.7043
15.9933       185500       37.7006
16.0019       185600       37.697
16.0106       185700       37.6934
16.0192       185800       37.6898
16.0278       185900       37.6862
16.0364       186000       37.6826
16.0451       186100       37.679
16.0537       186200       37.6753
16.0623       186300       37.6717
16.0709       186400       37.6681
16.0795       186500       37.6645
16.0882       186600       37.6609
16.0968       186700       37.6573
16.1054       186800       37.6538
16.114       186900       37.6502
16.1227       187000       37.6466
16.1313       187100       37.643
16.1399       187200       37.6394
16.1485       187300       37.6358
16.1571       187400       37.6322
16.1658       187500       37.6287
16.1744       187600       37.6251
16.183       187700       37.6215
16.1916       187800       37.6179
16.2002       187900       37.6144
16.2089       188000       37.6108
16.2175       188100       37.6073
16.2261       188200       37.6037
16.2347       188300       37.6001
16.2434       188400       37.5966
16.252       188500       37.593
16.2606       188600       37.5895
16.2692       188700       37.5859
16.2778       188800       37.5824
16.2865       188900       37.5788
16.2951       189000       37.5753
16.3037       189100       37.5717
16.3123       189200       37.5682
16.321       189300       37.5647
16.3296       189400       37.5611
16.3382       189500       37.5576
16.3468       189600       37.5541
16.3554       189700       37.5505
16.3641       189800       37.547
16.3727       189900       37.5435
16.3813       190000       37.54
16.3899       190100       37.5365
16.3985       190200       37.5329
16.4072       190300       37.5294
16.4158       190400       37.5259
16.4244       190500       37.5224
16.433       190600       37.5189
16.4417       190700       37.5154
16.4503       190800       37.5119
16.4589       190900       37.5084
16.4675       191000       37.5049
16.4761       191100       37.5014
16.4848       191200       37.4979
16.4934       191300       37.4944
16.502       191400       37.4909
16.5106       191500       37.4874
16.5193       191600       37.4839
16.5279       191700       37.4805
16.5365       191800       37.477
16.5451       191900       37.4735
16.5537       192000       37.47
16.5624       192100       37.4666
16.571       192200       37.4631
16.5796       192300       37.4596
16.5882       192400       37.4561
16.5968       192500       37.4527
16.6055       192600       37.4492
16.6141       192700       37.4458
16.6227       192800       37.4423
16.6313       192900       37.4388
16.64       193000       37.4354
16.6486       193100       37.4319
16.6572       193200       37.4285
16.6658       193300       37.425
16.6744       193400       37.4216
16.6831       193500       37.4181
16.6917       193600       37.4147
16.7003       193700       37.4113
16.7089       193800       37.4078
16.7175       193900       37.4044
16.7262       194000       37.401
16.7348       194100       37.3975
16.7434       194200       37.3941
16.752       194300       37.3907
16.7607       194400       37.3872
16.7693       194500       37.3838
16.7779       194600       37.3804
16.7865       194700       37.377
16.7951       194800       37.3736
16.8038       194900       37.3701
16.8124       195000       37.3667
16.821       195100       37.3633
16.8296       195200       37.3599
16.8383       195300       37.3565
16.8469       195400       37.3531
16.8555       195500       37.3497
16.8641       195600       37.3463
16.8727       195700       37.3429
16.8814       195800       37.3395
16.89       195900       37.3361
16.8986       196000       37.3327
16.9072       196100       37.3293
16.9158       196200       37.326
16.9245       196300       37.3226
16.9331       196400       37.3192
16.9417       196500       37.3158
16.9503       196600       37.3124
16.959       196700       37.309
16.9676       196800       37.3057
16.9762       196900       37.3023
16.9848       197000       37.2989
16.9934       197100       37.2956
17.0021       197200       37.2922
17.0107       197300       37.2888
17.0193       197400       37.2855
17.0279       197500       37.2821
17.0366       197600       37.2787
17.0452       197700       37.2754
17.0538       197800       37.272
17.0624       197900       37.2687
17.071       198000       37.2653
17.0797       198100       37.262
17.0883       198200       37.2586
17.0969       198300       37.2553
17.1055       198400       37.252
17.1141       198500       37.2486
17.1228       198600       37.2453
17.1314       198700       37.2419
17.14       198800       37.2386
17.1486       198900       37.2353
17.1573       199000       37.2319
17.1659       199100       37.2286
17.1745       199200       37.2253
17.1831       199300       37.222
17.1917       199400       37.2186
17.2004       199500       37.2153
17.209       199600       37.212
17.2176       199700       37.2087
17.2262       199800       37.2054
17.2349       199900       37.2021
17.2435       200000       37.1988
17.2521       200100       37.1954
17.2607       200200       37.1921
17.2693       200300       37.1888
17.278       200400       37.1855
17.2866       200500       37.1822
17.2952       200600       37.1789
17.3038       200700       37.1756
17.3124       200800       37.1723
17.3211       200900       37.169
17.3297       201000       37.1658
17.3383       201100       37.1625
17.3469       201200       37.1592
17.3556       201300       37.1559
17.3642       201400       37.1526
17.3728       201500       37.1493
17.3814       201600       37.1461
17.39       201700       37.1428
17.3987       201800       37.1395
17.4073       201900       37.1362
17.4159       202000       37.133
17.4245       202100       37.1297
17.4332       202200       37.1264
17.4418       202300       37.1232
17.4504       202400       37.1199
17.459       202500       37.1166
17.4676       202600       37.1134
17.4763       202700       37.1101
17.4849       202800       37.1069
17.4935       202900       37.1036
17.5021       203000       37.1004
17.5107       203100       37.0971
17.5194       203200       37.0939
17.528       203300       37.0906
17.5366       203400       37.0874
17.5452       203500       37.0841
17.5539       203600       37.0809
17.5625       203700       37.0777
17.5711       203800       37.0744
17.5797       203900       37.0712
17.5883       204000       37.0679
17.597       204100       37.0647
17.6056       204200       37.0615
17.6142       204300       37.0583
17.6228       204400       37.055
17.6315       204500       37.0518
17.6401       204600       37.0486
17.6487       204700       37.0454
17.6573       204800       37.0422
17.6659       204900       37.0389
17.6746       205000       37.0357
17.6832       205100       37.0325
17.6918       205200       37.0293
17.7004       205300       37.0261
17.709       205400       37.0229
17.7177       205500       37.0197
17.7263       205600       37.0165
17.7349       205700       37.0133
17.7435       205800       37.0101
17.7522       205900       37.0069
17.7608       206000       37.0037
17.7694       206100       37.0005
17.778       206200       36.9973
17.7866       206300       36.9941
17.7953       206400       36.9909
17.8039       206500       36.9877
17.8125       206600       36.9846
17.8211       206700       36.9814
17.8298       206800       36.9782
17.8384       206900       36.975
17.847       207000       36.9718
17.8556       207100       36.9687
17.8642       207200       36.9655
17.8729       207300       36.9623
17.8815       207400       36.9592
17.8901       207500       36.956
17.8987       207600       36.9528
17.9073       207700       36.9497
17.916       207800       36.9465
17.9246       207900       36.9433
17.9332       208000       36.9402
17.9418       208100       36.937
17.9505       208200       36.9339
17.9591       208300       36.9307
17.9677       208400       36.9276
17.9763       208500       36.9244
17.9849       208600       36.9213
17.9936       208700       36.9181
18.0022       208800       36.915
18.0108       208900       36.9118
18.0194       209000       36.9087
18.0281       209100       36.9056
18.0367       209200       36.9024
18.0453       209300       36.8993
18.0539       209400       36.8962
18.0625       209500       36.893
18.0712       209600       36.8899
18.0798       209700       36.8868
18.0884       209800       36.8836
18.097       209900       36.8805
18.1056       210000       36.8774
18.1143       210100       36.8743
18.1229       210200       36.8712
18.1315       210300       36.868
18.1401       210400       36.8649
18.1488       210500       36.8618
18.1574       210600       36.8587
18.166       210700       36.8556
18.1746       210800       36.8525
18.1832       210900       36.8494
18.1919       211000       36.8463
18.2005       211100       36.8432
18.2091       211200       36.8401
18.2177       211300       36.837
18.2264       211400       36.8339
18.235       211500       36.8308
18.2436       211600       36.8277
18.2522       211700       36.8246
18.2608       211800       36.8215
18.2695       211900       36.8184
18.2781       212000       36.8153
18.2867       212100       36.8122
18.2953       212200       36.8092
18.3039       212300       36.8061
18.3126       212400       36.803
18.3212       212500       36.7999
18.3298       212600       36.7968
18.3384       212700       36.7938
18.3471       212800       36.7907
18.3557       212900       36.7876
18.3643       213000       36.7846
18.3729       213100       36.7815
18.3815       213200       36.7784
18.3902       213300       36.7754
18.3988       213400       36.7723
18.4074       213500       36.7692
18.416       213600       36.7662
18.4247       213700       36.7631
18.4333       213800       36.7601
18.4419       213900       36.757
18.4505       214000       36.754
18.4591       214100       36.7509
18.4678       214200       36.7479
18.4764       214300       36.7448
18.485       214400       36.7418
18.4936       214500       36.7387
18.5022       214600       36.7357
18.5109       214700       36.7326
18.5195       214800       36.7296
18.5281       214900       36.7266
18.5367       215000       36.7235
18.5454       215100       36.7205
18.554       215200       36.7175
18.5626       215300       36.7144
18.5712       215400       36.7114
18.5798       215500       36.7084
18.5885       215600       36.7053
18.5971       215700       36.7023
18.6057       215800       36.6993
18.6143       215900       36.6963
18.623       216000       36.6933
18.6316       216100       36.6902
18.6402       216200       36.6872
18.6488       216300       36.6842
18.6574       216400       36.6812
18.6661       216500       36.6782
18.6747       216600       36.6752
18.6833       216700       36.6722
18.6919       216800       36.6692
18.7005       216900       36.6662
18.7092       217000       36.6632
18.7178       217100       36.6602
18.7264       217200       36.6572
18.735       217300       36.6542
18.7437       217400       36.6512
18.7523       217500       36.6482
18.7609       217600       36.6452
18.7695       217700       36.6422
18.7781       217800       36.6392
18.7868       217900       36.6362
18.7954       218000       36.6332
18.804       218100       36.6302
18.8126       218200       36.6273
18.8213       218300       36.6243
18.8299       218400       36.6213
18.8385       218500       36.6183
18.8471       218600       36.6153
18.8557       218700       36.6124
18.8644       218800       36.6094
18.873       218900       36.6064
18.8816       219000       36.6035
18.8902       219100       36.6005
18.8988       219200       36.5975
18.9075       219300       36.5946
18.9161       219400       36.5916
18.9247       219500       36.5886
18.9333       219600       36.5857
18.942       219700       36.5827
18.9506       219800       36.5798
18.9592       219900       36.5768
18.9678       220000       36.5739
18.9764       220100       36.5709
18.9851       220200       36.568
18.9937       220300       36.565
19.0023       220400       36.5621
19.0109       220500       36.5591
19.0196       220600       36.5562
19.0282       220700       36.5532
19.0368       220800       36.5503
19.0454       220900       36.5473
19.054       221000       36.5444
19.0627       221100       36.5415
19.0713       221200       36.5385
19.0799       221300       36.5356
19.0885       221400       36.5327
19.0971       221500       36.5297
19.1058       221600       36.5268
19.1144       221700       36.5239
19.123       221800       36.521
19.1316       221900       36.518
19.1403       222000       36.5151
19.1489       222100       36.5122
19.1575       222200       36.5093
19.1661       222300       36.5064
19.1747       222400       36.5034
19.1834       222500       36.5005
19.192       222600       36.4976
19.2006       222700       36.4947
19.2092       222800       36.4918
19.2179       222900       36.4889
19.2265       223000       36.486
19.2351       223100       36.4831
19.2437       223200       36.4802
19.2523       223300       36.4773
19.261       223400       36.4744
19.2696       223500       36.4715
19.2782       223600       36.4686
19.2868       223700       36.4657
19.2954       223800       36.4628
19.3041       223900       36.4599
19.3127       224000       36.457
19.3213       224100       36.4541
19.3299       224200       36.4512
19.3386       224300       36.4483
19.3472       224400       36.4455
19.3558       224500       36.4426
19.3644       224600       36.4397
19.373       224700       36.4368
19.3817       224800       36.4339
19.3903       224900       36.4311
19.3989       225000       36.4282
19.4075       225100       36.4253
19.4162       225200       36.4224
19.4248       225300       36.4196
19.4334       225400       36.4167
19.442       225500       36.4138
19.4506       225600       36.411
19.4593       225700       36.4081
19.4679       225800       36.4052
19.4765       225900       36.4024
19.4851       226000       36.3995
19.4937       226100       36.3967
19.5024       226200       36.3938
19.511       226300       36.3909
19.5196       226400       36.3881
19.5282       226500       36.3852
19.5369       226600       36.3824
19.5455       226700       36.3795
19.5541       226800       36.3767
19.5627       226900       36.3738
19.5713       227000       36.371
19.58       227100       36.3682
19.5886       227200       36.3653
19.5972       227300       36.3625
19.6058       227400       36.3596
19.6145       227500       36.3568
19.6231       227600       36.354
19.6317       227700       36.3511
19.6403       227800       36.3483
19.6489       227900       36.3455
19.6576       228000       36.3426
19.6662       228100       36.3398
19.6748       228200       36.337
19.6834       228300       36.3341
19.692       228400       36.3313
19.7007       228500       36.3285
19.7093       228600       36.3257
19.7179       228700       36.3229
19.7265       228800       36.32
19.7352       228900       36.3172
19.7438       229000       36.3144
19.7524       229100       36.3116
19.761       229200       36.3088
19.7696       229300       36.306
19.7783       229400       36.3032
19.7869       229500       36.3004
19.7955       229600       36.2975
19.8041       229700       36.2947
19.8128       229800       36.2919
19.8214       229900       36.2891
19.83       230000       36.2863
19.8386       230100       36.2835
19.8472       230200       36.2807
19.8559       230300       36.2779
19.8645       230400       36.2751
19.8731       230500       36.2723
19.8817       230600       36.2696
19.8903       230700       36.2668
19.899       230800       36.264
19.9076       230900       36.2612
19.9162       231000       36.2584
19.9248       231100       36.2556
19.9335       231200       36.2528
19.9421       231300       36.2501
19.9507       231400       36.2473
19.9593       231500       36.2445
19.9679       231600       36.2417
19.9766       231700       36.2389
19.9852       231800       36.2362
19.9938       231900       36.2334
20.0024       232000       36.2306
20.0111       232100       36.2278
20.0197       232200       36.2251
20.0283       232300       36.2223
20.0369       232400       36.2195
20.0455       232500       36.2168
20.0542       232600       36.214
20.0628       232700       36.2112
20.0714       232800       36.2085
20.08       232900       36.2057
20.0886       233000       36.203
20.0973       233100       36.2002
20.1059       233200       36.1975
20.1145       233300       36.1947
20.1231       233400       36.1919
20.1318       233500       36.1892
20.1404       233600       36.1864
20.149       233700       36.1837
20.1576       233800       36.181
20.1662       233900       36.1782
20.1749       234000       36.1755
20.1835       234100       36.1727
20.1921       234200       36.17
20.2007       234300       36.1672
20.2094       234400       36.1645
20.218       234500       36.1618
20.2266       234600       36.159
20.2352       234700       36.1563
20.2438       234800       36.1536
20.2525       234900       36.1508
20.2611       235000       36.1481
20.2697       235100       36.1454
20.2783       235200       36.1426
20.2869       235300       36.1399
20.2956       235400       36.1372
20.3042       235500       36.1345
20.3128       235600       36.1317
20.3214       235700       36.129
20.3301       235800       36.1263
20.3387       235900       36.1236
20.3473       236000       36.1209
20.3559       236100       36.1182
20.3645       236200       36.1154
20.3732       236300       36.1127
20.3818       236400       36.11
20.3904       236500       36.1073
20.399       236600       36.1046
20.4077       236700       36.1019
20.4163       236800       36.0992
20.4249       236900       36.0965
20.4335       237000       36.0938
20.4421       237100       36.0911
20.4508       237200       36.0884
20.4594       237300       36.0857
20.468       237400       36.083
20.4766       237500       36.0803
20.4852       237600       36.0776
20.4939       237700       36.0749
20.5025       237800       36.0722
20.5111       237900       36.0695
20.5197       238000       36.0668
20.5284       238100       36.0641
20.537       238200       36.0614
20.5456       238300       36.0588
20.5542       238400       36.0561
20.5628       238500       36.0534
20.5715       238600       36.0507
20.5801       238700       36.048
20.5887       238800       36.0454
20.5973       238900       36.0427
20.606       239000       36.04
20.6146       239100       36.0373
20.6232       239200       36.0347
20.6318       239300       36.032
20.6404       239400       36.0293
20.6491       239500       36.0266
20.6577       239600       36.024
20.6663       239700       36.0213
20.6749       239800       36.0186
20.6835       239900       36.016
20.6922       240000       36.0133
20.7008       240100       36.0107
20.7094       240200       36.008
20.718       240300       36.0053
20.7267       240400       36.0027
20.7353       240500       36
20.7439       240600       35.9974
20.7525       240700       35.9947
20.7611       240800       35.9921
20.7698       240900       35.9894
20.7784       241000       35.9868
20.787       241100       35.9841
20.7956       241200       35.9815
20.8043       241300       35.9788
20.8129       241400       35.9762
20.8215       241500       35.9735
20.8301       241600       35.9709
20.8387       241700       35.9682
20.8474       241800       35.9656
20.856       241900       35.963
20.8646       242000       35.9603
20.8732       242100       35.9577
20.8818       242200       35.9551
20.8905       242300       35.9524
20.8991       242400       35.9498
20.9077       242500       35.9472
20.9163       242600       35.9445
20.925       242700       35.9419
20.9336       242800       35.9393
20.9422       242900       35.9367
20.9508       243000       35.934
20.9594       243100       35.9314
20.9681       243200       35.9288
20.9767       243300       35.9262
20.9853       243400       35.9236
20.9939       243500       35.9209
21.0026       243600       35.9183
21.0112       243700       35.9157
21.0198       243800       35.9131
21.0284       243900       35.9105
21.037       244000       35.9079
21.0457       244100       35.9053
21.0543       244200       35.9026
21.0629       244300       35.9
21.0715       244400       35.8974
21.0801       244500       35.8948
21.0888       244600       35.8922
21.0974       244700       35.8896
21.106       244800       35.887
21.1146       244900       35.8844
21.1233       245000       35.8818
21.1319       245100       35.8792
21.1405       245200       35.8766
21.1491       245300       35.874
21.1577       245400       35.8714
21.1664       245500       35.8689
21.175       245600       35.8663
21.1836       245700       35.8637
21.1922       245800       35.8611
21.2009       245900       35.8585
21.2095       246000       35.8559
21.2181       246100       35.8533
21.2267       246200       35.8507
21.2353       246300       35.8482
21.244       246400       35.8456
21.2526       246500       35.843
21.2612       246600       35.8404
21.2698       246700       35.8378
21.2784       246800       35.8353
21.2871       246900       35.8327
21.2957       247000       35.8301
21.3043       247100       35.8275
21.3129       247200       35.825
21.3216       247300       35.8224
21.3302       247400       35.8198
21.3388       247500       35.8173
21.3474       247600       35.8147
21.356       247700       35.8121
21.3647       247800       35.8096
21.3733       247900       35.807
21.3819       248000       35.8044
21.3905       248100       35.8019
21.3992       248200       35.7993
21.4078       248300       35.7968
21.4164       248400       35.7942
21.425       248500       35.7917
21.4336       248600       35.7891
21.4423       248700       35.7866
21.4509       248800       35.784
21.4595       248900       35.7815
21.4681       249000       35.7789
21.4767       249100       35.7764
21.4854       249200       35.7738
21.494       249300       35.7713
21.5026       249400       35.7687
21.5112       249500       35.7662
21.5199       249600       35.7636
21.5285       249700       35.7611
21.5371       249800       35.7586
21.5457       249900       35.756
21.5543       250000       35.7535
21.563       250100       35.7509
21.5716       250200       35.7484
21.5802       250300       35.7459
21.5888       250400       35.7433
21.5975       250500       35.7408
21.6061       250600       35.7383
21.6147       250700       35.7358
21.6233       250800       35.7332
21.6319       250900       35.7307
21.6406       251000       35.7282
21.6492       251100       35.7256
21.6578       251200       35.7231
21.6664       251300       35.7206
21.675       251400       35.7181
21.6837       251500       35.7156
21.6923       251600       35.713
21.7009       251700       35.7105
21.7095       251800       35.708
21.7182       251900       35.7055
21.7268       252000       35.703
21.7354       252100       35.7005
21.744       252200       35.698
21.7526       252300       35.6955
21.7613       252400       35.6929
21.7699       252500       35.6904
21.7785       252600       35.6879
21.7871       252700       35.6854
21.7958       252800       35.6829
21.8044       252900       35.6804
21.813       253000       35.6779
21.8216       253100       35.6754
21.8302       253200       35.6729
21.8389       253300       35.6704
21.8475       253400       35.6679
21.8561       253500       35.6654
21.8647       253600       35.6629
21.8733       253700       35.6604
21.882       253800       35.658
21.8906       253900       35.6555
21.8992       254000       35.653
21.9078       254100       35.6505
21.9165       254200       35.648
21.9251       254300       35.6455
21.9337       254400       35.643
21.9423       254500       35.6405
21.9509       254600       35.6381
21.9596       254700       35.6356
21.9682       254800       35.6331
21.9768       254900       35.6306
21.9854       255000       35.6281
21.9941       255100       35.6257
22.0027       255200       35.6232
22.0113       255300       35.6207
22.0199       255400       35.6182
22.0285       255500       35.6158
22.0372       255600       35.6133
22.0458       255700       35.6108
22.0544       255800       35.6084
22.063       255900       35.6059
22.0716       256000       35.6034
22.0803       256100       35.601
22.0889       256200       35.5985
22.0975       256300       35.596
22.1061       256400       35.5936
22.1148       256500       35.5911
22.1234       256600       35.5886
22.132       256700       35.5862
22.1406       256800       35.5837
22.1492       256900       35.5813
22.1579       257000       35.5788
22.1665       257100       35.5764
22.1751       257200       35.5739
22.1837       257300       35.5715
22.1924       257400       35.569
22.201       257500       35.5666
22.2096       257600       35.5641
22.2182       257700       35.5617
22.2268       257800       35.5592
22.2355       257900       35.5568
22.2441       258000       35.5543
22.2527       258100       35.5519
22.2613       258200       35.5494
22.2699       258300       35.547
22.2786       258400       35.5446
22.2872       258500       35.5421
22.2958       258600       35.5397
22.3044       258700       35.5372
22.3131       258800       35.5348
22.3217       258900       35.5324
22.3303       259000       35.5299
22.3389       259100       35.5275
22.3475       259200       35.5251
22.3562       259300       35.5226
22.3648       259400       35.5202
22.3734       259500       35.5178
22.382       259600       35.5154
22.3907       259700       35.5129
22.3993       259800       35.5105
22.4079       259900       35.5081
22.4165       260000       35.5057
22.4251       260100       35.5032
22.4338       260200       35.5008
22.4424       260300       35.4984
22.451       260400       35.496
22.4596       260500       35.4936
22.4682       260600       35.4912
22.4769       260700       35.4887
22.4855       260800       35.4863
22.4941       260900       35.4839
22.5027       261000       35.4815
22.5114       261100       35.4791
22.52       261200       35.4767
22.5286       261300       35.4743
22.5372       261400       35.4719
22.5458       261500       35.4695
22.5545       261600       35.4671
22.5631       261700       35.4647
22.5717       261800       35.4623
22.5803       261900       35.4599
22.589       262000       35.4575
22.5976       262100       35.4551
22.6062       262200       35.4527
22.6148       262300       35.4503
22.6234       262400       35.4479
22.6321       262500       35.4455
22.6407       262600       35.4431
22.6493       262700       35.4407
22.6579       262800       35.4383
22.6665       262900       35.4359
22.6752       263000       35.4335
22.6838       263100       35.4311
22.6924       263200       35.4287
22.701       263300       35.4264
22.7097       263400       35.424
22.7183       263500       35.4216
22.7269       263600       35.4192
22.7355       263700       35.4168
22.7441       263800       35.4144
22.7528       263900       35.4121
22.7614       264000       35.4097
22.77       264100       35.4073
22.7786       264200       35.4049
22.7873       264300       35.4026
22.7959       264400       35.4002
22.8045       264500       35.3978
22.8131       264600       35.3954
22.8217       264700       35.3931
22.8304       264800       35.3907
22.839       264900       35.3883
22.8476       265000       35.386
22.8562       265100       35.3836
22.8648       265200       35.3812
22.8735       265300       35.3789
22.8821       265400       35.3765
22.8907       265500       35.3741
22.8993       265600       35.3718
22.908       265700       35.3694
22.9166       265800       35.367
22.9252       265900       35.3647
22.9338       266000       35.3623
22.9424       266100       35.36
22.9511       266200       35.3576
22.9597       266300       35.3553
22.9683       266400       35.3529
22.9769       266500       35.3506
22.9856       266600       35.3482
22.9942       266700       35.3459
23.0028       266800       35.3435
23.0114       266900       35.3412
23.02       267000       35.3388
23.0287       267100       35.3365
23.0373       267200       35.3341
23.0459       267300       35.3318
23.0545       267400       35.3294
23.0631       267500       35.3271
23.0718       267600       35.3248
23.0804       267700       35.3224
23.089       267800       35.3201
23.0976       267900       35.3177
23.1063       268000       35.3154
23.1149       268100       35.3131
23.1235       268200       35.3107
23.1321       268300       35.3084
23.1407       268400       35.3061
23.1494       268500       35.3037
23.158       268600       35.3014
23.1666       268700       35.2991
23.1752       268800       35.2967
23.1839       268900       35.2944
23.1925       269000       35.2921
23.2011       269100       35.2898
23.2097       269200       35.2874
23.2183       269300       35.2851
23.227       269400       35.2828
23.2356       269500       35.2805
23.2442       269600       35.2781
23.2528       269700       35.2758
23.2614       269800       35.2735
23.2701       269900       35.2712
23.2787       270000       35.2689
23.2873       270100       35.2666
23.2959       270200       35.2642
23.3046       270300       35.2619
23.3132       270400       35.2596
23.3218       270500       35.2573
23.3304       270600       35.255
23.339       270700       35.2527
23.3477       270800       35.2504
23.3563       270900       35.2481
23.3649       271000       35.2458
23.3735       271100       35.2435
23.3822       271200       35.2412
23.3908       271300       35.2389
23.3994       271400       35.2366
23.408       271500       35.2343
23.4166       271600       35.232
23.4253       271700       35.2297
23.4339       271800       35.2274
23.4425       271900       35.2251
23.4511       272000       35.2228
23.4597       272100       35.2205
23.4684       272200       35.2182
23.477       272300       35.2159
23.4856       272400       35.2136
23.4942       272500       35.2113
23.5029       272600       35.209
23.5115       272700       35.2067
23.5201       272800       35.2044
23.5287       272900       35.2021
23.5373       273000       35.1999
23.546       273100       35.1976
23.5546       273200       35.1953
23.5632       273300       35.193
23.5718       273400       35.1907
23.5805       273500       35.1884
23.5891       273600       35.1862
23.5977       273700       35.1839
23.6063       273800       35.1816
23.6149       273900       35.1793
23.6236       274000       35.177
23.6322       274100       35.1748
23.6408       274200       35.1725
23.6494       274300       35.1702
23.658       274400       35.1679
23.6667       274500       35.1657
23.6753       274600       35.1634
23.6839       274700       35.1611
23.6925       274800       35.1589
23.7012       274900       35.1566
23.7098       275000       35.1543
23.7184       275100       35.1521
23.727       275200       35.1498
23.7356       275300       35.1475
23.7443       275400       35.1453
23.7529       275500       35.143
23.7615       275600       35.1407
23.7701       275700       35.1385
23.7788       275800       35.1362
23.7874       275900       35.134
23.796       276000       35.1317
23.8046       276100       35.1295
23.8132       276200       35.1272
23.8219       276300       35.1249
23.8305       276400       35.1227
23.8391       276500       35.1204
23.8477       276600       35.1182
23.8563       276700       35.1159
23.865       276800       35.1137
23.8736       276900       35.1114
23.8822       277000       35.1092
23.8908       277100       35.1069
23.8995       277200       35.1047
23.9081       277300       35.1025
23.9167       277400       35.1002
23.9253       277500       35.098
23.9339       277600       35.0957
23.9426       277700       35.0935
23.9512       277800       35.0912
23.9598       277900       35.089
23.9684       278000       35.0868
23.9771       278100       35.0845
23.9857       278200       35.0823
23.9943       278300       35.0801
24.0029       278400       35.0778
24.0115       278500       35.0756
24.0202       278600       35.0734
24.0288       278700       35.0711
24.0374       278800       35.0689
24.046       278900       35.0667
24.0546       279000       35.0644
24.0633       279100       35.0622
24.0719       279200       35.06
24.0805       279300       35.0578
24.0891       279400       35.0555
24.0978       279500       35.0533
24.1064       279600       35.0511
24.115       279700       35.0489
24.1236       279800       35.0466
24.1322       279900       35.0444
24.1409       280000       35.0422
24.1495       280100       35.04
24.1581       280200       35.0378
24.1667       280300       35.0356
24.1754       280400       35.0333
24.184       280500       35.0311
24.1926       280600       35.0289
24.2012       280700       35.0267
24.2098       280800       35.0245
24.2185       280900       35.0223
24.2271       281000       35.0201
24.2357       281100       35.0179
24.2443       281200       35.0157
24.2529       281300       35.0134
24.2616       281400       35.0112
24.2702       281500       35.009
24.2788       281600       35.0068
24.2874       281700       35.0046
24.2961       281800       35.0024
24.3047       281900       35.0002
24.3133       282000       34.998
24.3219       282100       34.9958
24.3305       282200       34.9936
24.3392       282300       34.9914
24.3478       282400       34.9892
24.3564       282500       34.987
24.365       282600       34.9848
24.3737       282700       34.9826
24.3823       282800       34.9804
24.3909       282900       34.9783
24.3995       283000       34.9761
24.4081       283100       34.9739
24.4168       283200       34.9717
24.4254       283300       34.9695
24.434       283400       34.9673
24.4426       283500       34.9651
24.4512       283600       34.9629
24.4599       283700       34.9607
24.4685       283800       34.9586
24.4771       283900       34.9564
24.4857       284000       34.9542
24.4944       284100       34.952
24.503       284200       34.9498
24.5116       284300       34.9477
24.5202       284400       34.9455
24.5288       284500       34.9433
24.5375       284600       34.9411
24.5461       284700       34.9389
24.5547       284800       34.9368
24.5633       284900       34.9346
24.572       285000       34.9324
24.5806       285100       34.9303
24.5892       285200       34.9281
24.5978       285300       34.9259
24.6064       285400       34.9237
24.6151       285500       34.9216
24.6237       285600       34.9194
24.6323       285700       34.9172
24.6409       285800       34.9151
24.6495       285900       34.9129
24.6582       286000       34.9107
24.6668       286100       34.9086
24.6754       286200       34.9064
24.684       286300       34.9043
24.6927       286400       34.9021
24.7013       286500       34.8999
24.7099       286600       34.8978
24.7185       286700       34.8956
24.7271       286800       34.8935
24.7358       286900       34.8913
24.7444       287000       34.8891
24.753       287100       34.887
24.7616       287200       34.8848
24.7703       287300       34.8827
24.7789       287400       34.8805
24.7875       287500       34.8784
24.7961       287600       34.8762
24.8047       287700       34.8741
24.8134       287800       34.8719
24.822       287900       34.8698
24.8306       288000       34.8676
24.8392       288100       34.8655
24.8478       288200       34.8633
24.8565       288300       34.8612
24.8651       288400       34.8591
24.8737       288500       34.8569
24.8823       288600       34.8548
24.891       288700       34.8526
24.8996       288800       34.8505
24.9082       288900       34.8484
24.9168       289000       34.8462
24.9254       289100       34.8441
24.9341       289200       34.8419
24.9427       289300       34.8398
24.9513       289400       34.8377
24.9599       289500       34.8355
24.9686       289600       34.8334
24.9772       289700       34.8313
24.9858       289800       34.8291
24.9944       289900       34.827
25.003       290000       34.8249
25.0117       290100       34.8228
25.0203       290200       34.8206
25.0289       290300       34.8185
25.0375       290400       34.8164
25.0461       290500       34.8142
25.0548       290600       34.8121
25.0634       290700       34.81
25.072       290800       34.8079
25.0806       290900       34.8058
25.0893       291000       34.8036
25.0979       291100       34.8015
25.1065       291200       34.7994
25.1151       291300       34.7973
25.1237       291400       34.7952
25.1324       291500       34.793
25.141       291600       34.7909
25.1496       291700       34.7888
25.1582       291800       34.7867
25.1669       291900       34.7846
25.1755       292000       34.7825
25.1841       292100       34.7804
25.1927       292200       34.7783
25.2013       292300       34.7761
25.21       292400       34.774
25.2186       292500       34.7719
25.2272       292600       34.7698
25.2358       292700       34.7677
25.2444       292800       34.7656
25.2531       292900       34.7635
25.2617       293000       34.7614
25.2703       293100       34.7593
25.2789       293200       34.7572
25.2876       293300       34.7551
25.2962       293400       34.753
25.3048       293500       34.7509
25.3134       293600       34.7488
25.322       293700       34.7467
25.3307       293800       34.7446
25.3393       293900       34.7425
25.3479       294000       34.7404
25.3565       294100       34.7383
25.3652       294200       34.7362
25.3738       294300       34.7341
25.3824       294400       34.732
25.391       294500       34.7299
25.3996       294600       34.7279
25.4083       294700       34.7258
25.4169       294800       34.7237
25.4255       294900       34.7216
25.4341       295000       34.7195
25.4427       295100       34.7174
25.4514       295200       34.7153
25.46       295300       34.7132
25.4686       295400       34.7112
25.4772       295500       34.7091
25.4859       295600       34.707
25.4945       295700       34.7049
25.5031       295800       34.7028
25.5117       295900       34.7008
25.5203       296000       34.6987
25.529       296100       34.6966
25.5376       296200       34.6945
25.5462       296300       34.6924
25.5548       296400       34.6904
25.5635       296500       34.6883
25.5721       296600       34.6862
25.5807       296700       34.6841
25.5893       296800       34.6821
25.5979       296900       34.68
25.6066       297000       34.6779
25.6152       297100       34.6759
25.6238       297200       34.6738
25.6324       297300       34.6717
25.641       297400       34.6697
25.6497       297500       34.6676
25.6583       297600       34.6655
25.6669       297700       34.6635
25.6755       297800       34.6614
25.6842       297900       34.6593
25.6928       298000       34.6573
25.7014       298100       34.6552
25.71       298200       34.6531
25.7186       298300       34.6511
25.7273       298400       34.649
25.7359       298500       34.647
25.7445       298600       34.6449
25.7531       298700       34.6429
25.7618       298800       34.6408
25.7704       298900       34.6387
25.779       299000       34.6367
25.7876       299100       34.6346
25.7962       299200       34.6326
25.8049       299300       34.6305
25.8135       299400       34.6285
25.8221       299500       34.6264
25.8307       299600       34.6244
25.8393       299700       34.6223
25.848       299800       34.6203
25.8566       299900       34.6182
25.8652       300000       34.6162
25.8738       300100       34.6141
25.8825       300200       34.6121
25.8911       300300       34.6101
25.8997       300400       34.608
25.9083       300500       34.606
25.9169       300600       34.6039
25.9256       300700       34.6019
25.9342       300800       34.5998
25.9428       300900       34.5978
25.9514       301000       34.5958
25.9601       301100       34.5937
25.9687       301200       34.5917
25.9773       301300       34.5897
25.9859       301400       34.5876
25.9945       301500       34.5856
26.0032       301600       34.5836
26.0118       301700       34.5815
26.0204       301800       34.5795
26.029       301900       34.5775
26.0376       302000       34.5754
26.0463       302100       34.5734
26.0549       302200       34.5714
26.0635       302300       34.5693
26.0721       302400       34.5673
26.0808       302500       34.5653
26.0894       302600       34.5633
26.098       302700       34.5612
26.1066       302800       34.5592
26.1152       302900       34.5572
26.1239       303000       34.5552
26.1325       303100       34.5531
26.1411       303200       34.5511
26.1497       303300       34.5491
26.1584       303400       34.5471
26.167       303500       34.5451
26.1756       303600       34.5431
26.1842       303700       34.541
26.1928       303800       34.539
26.2015       303900       34.537
26.2101       304000       34.535
26.2187       304100       34.533
26.2273       304200       34.531
26.2359       304300       34.5289
26.2446       304400       34.5269
26.2532       304500       34.5249
26.2618       304600       34.5229
26.2704       304700       34.5209
26.2791       304800       34.5189
26.2877       304900       34.5169
26.2963       305000       34.5149
26.3049       305100       34.5129
26.3135       305200       34.5109
26.3222       305300       34.5089
26.3308       305400       34.5069
26.3394       305500       34.5049
26.348       305600       34.5029
26.3567       305700       34.5009
26.3653       305800       34.4989
26.3739       305900       34.4969
26.3825       306000       34.4949
26.3911       306100       34.4929
26.3998       306200       34.4909
26.4084       306300       34.4889
26.417       306400       34.4869
26.4256       306500       34.4849
26.4342       306600       34.4829
26.4429       306700       34.4809
26.4515       306800       34.4789
26.4601       306900       34.4769
26.4687       307000       34.4749
26.4774       307100       34.4729
26.486       307200       34.4709
26.4946       307300       34.4689
26.5032       307400       34.4669
26.5118       307500       34.465
26.5205       307600       34.463
26.5291       307700       34.461
26.5377       307800       34.459
26.5463       307900       34.457
26.555       308000       34.455
26.5636       308100       34.453
26.5722       308200       34.4511
26.5808       308300       34.4491
26.5894       308400       34.4471
26.5981       308500       34.4451
26.6067       308600       34.4431
26.6153       308700       34.4412
26.6239       308800       34.4392
26.6325       308900       34.4372
26.6412       309000       34.4352
26.6498       309100       34.4333
26.6584       309200       34.4313
26.667       309300       34.4293
26.6757       309400       34.4273
26.6843       309500       34.4254
26.6929       309600       34.4234
26.7015       309700       34.4214
26.7101       309800       34.4194
26.7188       309900       34.4175
26.7274       310000       34.4155
26.736       310100       34.4135
26.7446       310200       34.4116
26.7533       310300       34.4096
26.7619       310400       34.4076
26.7705       310500       34.4057
26.7791       310600       34.4037
26.7877       310700       34.4017
26.7964       310800       34.3998
26.805       310900       34.3978
26.8136       311000       34.3959
26.8222       311100       34.3939
26.8308       311200       34.3919
26.8395       311300       34.39
26.8481       311400       34.388
26.8567       311500       34.3861
26.8653       311600       34.3841
26.874       311700       34.3821
26.8826       311800       34.3802
26.8912       311900       34.3782
26.8998       312000       34.3763
26.9084       312100       34.3743
26.9171       312200       34.3724
26.9257       312300       34.3704
26.9343       312400       34.3685
26.9429       312500       34.3665
26.9516       312600       34.3646
26.9602       312700       34.3626
26.9688       312800       34.3607
26.9774       312900       34.3587
26.986       313000       34.3568
26.9947       313100       34.3548
27.0033       313200       34.3529
27.0119       313300       34.3509
27.0205       313400       34.349
27.0291       313500       34.3471
27.0378       313600       34.3451
27.0464       313700       34.3432
27.055       313800       34.3412
27.0636       313900       34.3393
27.0723       314000       34.3373
27.0809       314100       34.3354
27.0895       314200       34.3335
27.0981       314300       34.3315
27.1067       314400       34.3296
27.1154       314500       34.3277
27.124       314600       34.3257
27.1326       314700       34.3238
27.1412       314800       34.3219
27.1499       314900       34.3199
27.1585       315000       34.318
27.1671       315100       34.3161
27.1757       315200       34.3141
27.1843       315300       34.3122
27.193       315400       34.3103
27.2016       315500       34.3083
27.2102       315600       34.3064
27.2188       315700       34.3045
27.2274       315800       34.3026
27.2361       315900       34.3006
27.2447       316000       34.2987
27.2533       316100       34.2968
27.2619       316200       34.2949
27.2706       316300       34.2929
27.2792       316400       34.291
27.2878       316500       34.2891
27.2964       316600       34.2872
27.305       316700       34.2852
27.3137       316800       34.2833
27.3223       316900       34.2814
27.3309       317000       34.2795
27.3395       317100       34.2776
27.3482       317200       34.2757
27.3568       317300       34.2737
27.3654       317400       34.2718
27.374       317500       34.2699
27.3826       317600       34.268
27.3913       317700       34.2661
27.3999       317800       34.2642
27.4085       317900       34.2623
27.4171       318000       34.2603
27.4257       318100       34.2584
27.4344       318200       34.2565
27.443       318300       34.2546
27.4516       318400       34.2527
27.4602       318500       34.2508
27.4689       318600       34.2489
27.4775       318700       34.247
27.4861       318800       34.2451
27.4947       318900       34.2432
27.5033       319000       34.2413
27.512       319100       34.2394
27.5206       319200       34.2375
27.5292       319300       34.2356
27.5378       319400       34.2337
27.5465       319500       34.2318
27.5551       319600       34.2299
27.5637       319700       34.228
27.5723       319800       34.2261
27.5809       319900       34.2242
27.5896       320000       34.2223
27.5982       320100       34.2204
27.6068       320200       34.2185
27.6154       320300       34.2166
27.624       320400       34.2147
27.6327       320500       34.2128
27.6413       320600       34.2109
27.6499       320700       34.209
27.6585       320800       34.2071
27.6672       320900       34.2052
27.6758       321000       34.2033
27.6844       321100       34.2014
27.693       321200       34.1996
27.7016       321300       34.1977
27.7103       321400       34.1958
27.7189       321500       34.1939
27.7275       321600       34.192
27.7361       321700       34.1901
27.7448       321800       34.1882
27.7534       321900       34.1863
27.762       322000       34.1845
27.7706       322100       34.1826
27.7792       322200       34.1807
27.7879       322300       34.1788
27.7965       322400       34.1769
27.8051       322500       34.1751
27.8137       322600       34.1732
27.8223       322700       34.1713
27.831       322800       34.1694
27.8396       322900       34.1675
27.8482       323000       34.1657
27.8568       323100       34.1638
27.8655       323200       34.1619
27.8741       323300       34.16
27.8827       323400       34.1582
27.8913       323500       34.1563
27.8999       323600       34.1544
27.9086       323700       34.1525
27.9172       323800       34.1507
27.9258       323900       34.1488
27.9344       324000       34.1469
27.9431       324100       34.1451
27.9517       324200       34.1432
27.9603       324300       34.1413
27.9689       324400       34.1395
27.9775       324500       34.1376
27.9862       324600       34.1357
27.9948       324700       34.1339
28.0034       324800       34.132
28.012       324900       34.1301
28.0206       325000       34.1283
28.0293       325100       34.1264
28.0379       325200       34.1246
28.0465       325300       34.1227
28.0551       325400       34.1208
28.0638       325500       34.119
28.0724       325600       34.1171
28.081       325700       34.1153
28.0896       325800       34.1134
28.0982       325900       34.1115
28.1069       326000       34.1097
28.1155       326100       34.1078
28.1241       326200       34.106
28.1327       326300       34.1041
28.1414       326400       34.1023
28.15       326500       34.1004
28.1586       326600       34.0986
28.1672       326700       34.0967
28.1758       326800       34.0949
28.1845       326900       34.093
28.1931       327000       34.0912
28.2017       327100       34.0893
28.2103       327200       34.0875
28.2189       327300       34.0856
28.2276       327400       34.0838
28.2362       327500       34.0819
28.2448       327600       34.0801
28.2534       327700       34.0782
28.2621       327800       34.0764
28.2707       327900       34.0745
28.2793       328000       34.0727
28.2879       328100       34.0708
28.2965       328200       34.069
28.3052       328300       34.0672
28.3138       328400       34.0653
28.3224       328500       34.0635
28.331       328600       34.0616
28.3397       328700       34.0598
28.3483       328800       34.058
28.3569       328900       34.0561
28.3655       329000       34.0543
28.3741       329100       34.0525
28.3828       329200       34.0506
28.3914       329300       34.0488
28.4       329400       34.047
28.4086       329500       34.0451
28.4172       329600       34.0433
28.4259       329700       34.0415
28.4345       329800       34.0396
28.4431       329900       34.0378
28.4517       330000       34.036
28.4604       330100       34.0341
28.469       330200       34.0323
28.4776       330300       34.0305
28.4862       330400       34.0286
28.4948       330500       34.0268
28.5035       330600       34.025
28.5121       330700       34.0232
28.5207       330800       34.0213
28.5293       330900       34.0195
28.538       331000       34.0177
28.5466       331100       34.0159
28.5552       331200       34.0141
28.5638       331300       34.0122
28.5724       331400       34.0104
28.5811       331500       34.0086
28.5897       331600       34.0068
28.5983       331700       34.0049
28.6069       331800       34.0031
28.6155       331900       34.0013
28.6242       332000       33.9995
28.6328       332100       33.9977
28.6414       332200       33.9959
28.65       332300       33.994
28.6587       332400       33.9922
28.6673       332500       33.9904
28.6759       332600       33.9886
28.6845       332700       33.9868
28.6931       332800       33.985
28.7018       332900       33.9832
28.7104       333000       33.9814
28.719       333100       33.9795
28.7276       333200       33.9777
28.7363       333300       33.9759
28.7449       333400       33.9741
28.7535       333500       33.9723
28.7621       333600       33.9705
28.7707       333700       33.9687
28.7794       333800       33.9669
28.788       333900       33.9651
28.7966       334000       33.9633
28.8052       334100       33.9615
28.8138       334200       33.9597
28.8225       334300       33.9579
28.8311       334400       33.9561
28.8397       334500       33.9543
28.8483       334600       33.9525
28.857       334700       33.9507
28.8656       334800       33.9489
28.8742       334900       33.9471
28.8828       335000       33.9453
28.8914       335100       33.9435
28.9001       335200       33.9417
28.9087       335300       33.9399
28.9173       335400       33.9381
28.9259       335500       33.9363
28.9346       335600       33.9345
28.9432       335700       33.9327
28.9518       335800       33.9309
28.9604       335900       33.9291
28.969       336000       33.9273
28.9777       336100       33.9255
28.9863       336200       33.9237
28.9949       336300       33.9219
29.0035       336400       33.9202
29.0121       336500       33.9184
29.0208       336600       33.9166
29.0294       336700       33.9148
29.038       336800       33.913
29.0466       336900       33.9112
29.0553       337000       33.9094
29.0639       337100       33.9076
29.0725       337200       33.9059
29.0811       337300       33.9041
29.0897       337400       33.9023
29.0984       337500       33.9005
29.107       337600       33.8987
29.1156       337700       33.897
29.1242       337800       33.8952
29.1329       337900       33.8934
29.1415       338000       33.8916
29.1501       338100       33.8898
29.1587       338200       33.8881
29.1673       338300       33.8863
29.176       338400       33.8845
29.1846       338500       33.8827
29.1932       338600       33.8809
29.2018       338700       33.8792
29.2104       338800       33.8774
29.2191       338900       33.8756
29.2277       339000       33.8738
29.2363       339100       33.8721
29.2449       339200       33.8703
29.2536       339300       33.8685
29.2622       339400       33.8668
29.2708       339500       33.865
29.2794       339600       33.8632
29.288       339700       33.8614
29.2967       339800       33.8597
29.3053       339900       33.8579
29.3139       340000       33.8561
29.3225       340100       33.8544
29.3312       340200       33.8526
29.3398       340300       33.8508
29.3484       340400       33.8491
29.357       340500       33.8473
29.3656       340600       33.8456
29.3743       340700       33.8438
29.3829       340800       33.842
29.3915       340900       33.8403
29.4001       341000       33.8385
29.4087       341100       33.8367
29.4174       341200       33.835
29.426       341300       33.8332
29.4346       341400       33.8315
29.4432       341500       33.8297
29.4519       341600       33.8279
29.4605       341700       33.8262
29.4691       341800       33.8244
29.4777       341900       33.8227
29.4863       342000       33.8209
29.495       342100       33.8192
29.5036       342200       33.8174
29.5122       342300       33.8157
29.5208       342400       33.8139
29.5295       342500       33.8122
29.5381       342600       33.8104
29.5467       342700       33.8086
29.5553       342800       33.8069
29.5639       342900       33.8051
29.5726       343000       33.8034
29.5812       343100       33.8017
29.5898       343200       33.7999
29.5984       343300       33.7982
29.607       343400       33.7964
29.6157       343500       33.7947
29.6243       343600       33.7929
29.6329       343700       33.7912
29.6415       343800       33.7894
29.6502       343900       33.7877
29.6588       344000       33.7859
29.6674       344100       33.7842
29.676       344200       33.7825
29.6846       344300       33.7807
29.6933       344400       33.779
29.7019       344500       33.7772
29.7105       344600       33.7755
29.7191       344700       33.7737
29.7278       344800       33.772
29.7364       344900       33.7703
29.745       345000       33.7685
29.7536       345100       33.7668
29.7622       345200       33.7651
29.7709       345300       33.7633
29.7795       345400       33.7616
29.7881       345500       33.7599
29.7967       345600       33.7581
29.8053       345700       33.7564
29.814       345800       33.7547
29.8226       345900       33.7529
29.8312       346000       33.7512
29.8398       346100       33.7495
29.8485       346200       33.7477
29.8571       346300       33.746
29.8657       346400       33.7443
29.8743       346500       33.7425
29.8829       346600       33.7408
29.8916       346700       33.7391
29.9002       346800       33.7374
29.9088       346900       33.7356
29.9174       347000       33.7339
29.9261       347100       33.7322
29.9347       347200       33.7305
29.9433       347300       33.7287
29.9519       347400       33.727
29.9605       347500       33.7253
29.9692       347600       33.7236
29.9778       347700       33.7218
29.9864       347800       33.7201
29.995       347900       33.7184
30.0036       348000       33.7167
30.0123       348100       33.715
30.0209       348200       33.7132
30.0295       348300       33.7115
30.0381       348400       33.7098
30.0468       348500       33.7081
30.0554       348600       33.7064
30.064       348700       33.7047
30.0726       348800       33.7029
30.0812       348900       33.7012
30.0899       349000       33.6995
30.0985       349100       33.6978
30.1071       349200       33.6961
30.1157       349300       33.6944
30.1244       349400       33.6927
30.133       349500       33.6909
30.1416       349600       33.6892
30.1502       349700       33.6875
30.1588       349800       33.6858
30.1675       349900       33.6841
30.1761       350000       33.6824
30.1847       350100       33.6807
30.1933       350200       33.679
30.2019       350300       33.6773
30.2106       350400       33.6756
30.2192       350500       33.6739
30.2278       350600       33.6722
30.2364       350700       33.6704
30.2451       350800       33.6687
30.2537       350900       33.667
30.2623       351000       33.6653
30.2709       351100       33.6636
30.2795       351200       33.6619
30.2882       351300       33.6602
30.2968       351400       33.6585
30.3054       351500       33.6568
30.314       351600       33.6551
30.3227       351700       33.6534
30.3313       351800       33.6517
30.3399       351900       33.65
30.3485       352000       33.6483
30.3571       352100       33.6466
30.3658       352200       33.6449
30.3744       352300       33.6432
30.383       352400       33.6416
30.3916       352500       33.6399
30.4002       352600       33.6382
30.4089       352700       33.6365
30.4175       352800       33.6348
30.4261       352900       33.6331
30.4347       353000       33.6314
30.4434       353100       33.6297
30.452       353200       33.628
30.4606       353300       33.6263
30.4692       353400       33.6246
30.4778       353500       33.6229
30.4865       353600       33.6213
30.4951       353700       33.6196
30.5037       353800       33.6179
30.5123       353900       33.6162
30.521       354000       33.6145
30.5296       354100       33.6128
30.5382       354200       33.6111
30.5468       354300       33.6094
30.5554       354400       33.6078
30.5641       354500       33.6061
30.5727       354600       33.6044
30.5813       354700       33.6027
30.5899       354800       33.601
30.5985       354900       33.5994
30.6072       355000       33.5977
30.6158       355100       33.596
30.6244       355200       33.5943
30.633       355300       33.5926
30.6417       355400       33.591
30.6503       355500       33.5893
30.6589       355600       33.5876
30.6675       355700       33.5859
30.6761       355800       33.5842
30.6848       355900       33.5826
30.6934       356000       33.5809
30.702       356100       33.5792
30.7106       356200       33.5775
30.7193       356300       33.5759
30.7279       356400       33.5742
30.7365       356500       33.5725
30.7451       356600       33.5709
30.7537       356700       33.5692
30.7624       356800       33.5675
30.771       356900       33.5658
30.7796       357000       33.5642
30.7882       357100       33.5625
30.7968       357200       33.5608
30.8055       357300       33.5592
30.8141       357400       33.5575
30.8227       357500       33.5558
30.8313       357600       33.5542
30.84       357700       33.5525
30.8486       357800       33.5508
30.8572       357900       33.5492
30.8658       358000       33.5475
30.8744       358100       33.5458
30.8831       358200       33.5442
30.8917       358300       33.5425
30.9003       358400       33.5409
30.9089       358500       33.5392
30.9176       358600       33.5375
30.9262       358700       33.5359
30.9348       358800       33.5342
30.9434       358900       33.5326
30.952       359000       33.5309
30.9607       359100       33.5292
30.9693       359200       33.5276
30.9779       359300       33.5259
30.9865       359400       33.5243
30.9951       359500       33.5226
31.0038       359600       33.5209
31.0124       359700       33.5193
31.021       359800       33.5176
31.0296       359900       33.516
31.0383       360000       33.5143
31.0469       360100       33.5127
31.0555       360200       33.511
31.0641       360300       33.5094
31.0727       360400       33.5077
31.0814       360500       33.5061
31.09       360600       33.5044
31.0986       360700       33.5028
31.1072       360800       33.5011
31.1159       360900       33.4995
31.1245       361000       33.4978
31.1331       361100       33.4962
31.1417       361200       33.4945
31.1503       361300       33.4929
31.159       361400       33.4912
31.1676       361500       33.4896
31.1762       361600       33.4879
31.1848       361700       33.4863
31.1934       361800       33.4847
31.2021       361900       33.483
31.2107       362000       33.4814
31.2193       362100       33.4797
31.2279       362200       33.4781
31.2366       362300       33.4764
31.2452       362400       33.4748
31.2538       362500       33.4732
31.2624       362600       33.4715
31.271       362700       33.4699
31.2797       362800       33.4682
31.2883       362900       33.4666
31.2969       363000       33.465
31.3055       363100       33.4633
31.3142       363200       33.4617
31.3228       363300       33.4601
31.3314       363400       33.4584
31.34       363500       33.4568
31.3486       363600       33.4552
31.3573       363700       33.4535
31.3659       363800       33.4519
31.3745       363900       33.4503
31.3831       364000       33.4486
31.3917       364100       33.447
31.4004       364200       33.4454
31.409       364300       33.4437
31.4176       364400       33.4421
31.4262       364500       33.4405
31.4349       364600       33.4388
31.4435       364700       33.4372
31.4521       364800       33.4356
31.4607       364900       33.434
31.4693       365000       33.4323
31.478       365100       33.4307
31.4866       365200       33.4291
31.4952       365300       33.4274
31.5038       365400       33.4258
31.5125       365500       33.4242
31.5211       365600       33.4226
31.5297       365700       33.4209
31.5383       365800       33.4193
31.5469       365900       33.4177
31.5556       366000       33.4161
31.5642       366100       33.4145
31.5728       366200       33.4128
31.5814       366300       33.4112
31.59       366400       33.4096
31.5987       366500       33.408
31.6073       366600       33.4064
31.6159       366700       33.4047
31.6245       366800       33.4031
31.6332       366900       33.4015
31.6418       367000       33.3999
31.6504       367100       33.3983
31.659       367200       33.3967
31.6676       367300       33.395
31.6763       367400       33.3934
31.6849       367500       33.3918
31.6935       367600       33.3902
31.7021       367700       33.3886
31.7108       367800       33.387
31.7194       367900       33.3854
31.728       368000       33.3837
31.7366       368100       33.3821
31.7452       368200       33.3805
31.7539       368300       33.3789
31.7625       368400       33.3773
31.7711       368500       33.3757
31.7797       368600       33.3741
31.7883       368700       33.3725
31.797       368800       33.3709
31.8056       368900       33.3693
31.8142       369000       33.3677
31.8228       369100       33.3661
31.8315       369200       33.3644
31.8401       369300       33.3628
31.8487       369400       33.3612
31.8573       369500       33.3596
31.8659       369600       33.358
31.8746       369700       33.3564
31.8832       369800       33.3548
31.8918       369900       33.3532
31.9004       370000       33.3516
31.9091       370100       33.35
31.9177       370200       33.3484
31.9263       370300       33.3468
31.9349       370400       33.3452
31.9435       370500       33.3436
31.9522       370600       33.342
31.9608       370700       33.3404
31.9694       370800       33.3388
31.978       370900       33.3372
31.9866       371000       33.3356
31.9953       371100       33.334
32.0039       371200       33.3324
32.0125       371300       33.3308
32.0211       371400       33.3292
32.0298       371500       33.3277
32.0384       371600       33.3261
32.047       371700       33.3245
32.0556       371800       33.3229
32.0642       371900       33.3213
32.0729       372000       33.3197
32.0815       372100       33.3181
32.0901       372200       33.3165
32.0987       372300       33.3149
32.1074       372400       33.3133
32.116       372500       33.3117
32.1246       372600       33.3101
32.1332       372700       33.3086
32.1418       372800       33.307
32.1505       372900       33.3054
32.1591       373000       33.3038
32.1677       373100       33.3022
32.1763       373200       33.3006
32.1849       373300       33.299
32.1936       373400       33.2975
32.2022       373500       33.2959
32.2108       373600       33.2943
32.2194       373700       33.2927
32.2281       373800       33.2911
32.2367       373900       33.2895
32.2453       374000       33.288
32.2539       374100       33.2864
32.2625       374200       33.2848
32.2712       374300       33.2832
32.2798       374400       33.2816
32.2884       374500       33.2801
32.297       374600       33.2785
32.3057       374700       33.2769
32.3143       374800       33.2753
32.3229       374900       33.2737
32.3315       375000       33.2722
32.3401       375100       33.2706
32.3488       375200       33.269
32.3574       375300       33.2674
32.366       375400       33.2659
32.3746       375500       33.2643
32.3832       375600       33.2627
32.3919       375700       33.2611
32.4005       375800       33.2596
32.4091       375900       33.258
32.4177       376000       33.2564
32.4264       376100       33.2549
32.435       376200       33.2533
32.4436       376300       33.2517
32.4522       376400       33.2501
32.4608       376500       33.2486
32.4695       376600       33.247
32.4781       376700       33.2454
32.4867       376800       33.2439
32.4953       376900       33.2423
32.504       377000       33.2407
32.5126       377100       33.2392
32.5212       377200       33.2376
32.5298       377300       33.236
32.5384       377400       33.2345
32.5471       377500       33.2329
32.5557       377600       33.2313
32.5643       377700       33.2298
32.5729       377800       33.2282
32.5815       377900       33.2266
32.5902       378000       33.2251
32.5988       378100       33.2235
32.6074       378200       33.222
32.616       378300       33.2204
32.6247       378400       33.2188
32.6333       378500       33.2173
32.6419       378600       33.2157
32.6505       378700       33.2142
32.6591       378800       33.2126
32.6678       378900       33.211
32.6764       379000       33.2095
32.685       379100       33.2079
32.6936       379200       33.2064
32.7023       379300       33.2048
32.7109       379400       33.2033
32.7195       379500       33.2017
32.7281       379600       33.2002
32.7367       379700       33.1986
32.7454       379800       33.197
32.754       379900       33.1955
32.7626       380000       33.1939
32.7712       380100       33.1924
32.7798       380200       33.1908
32.7885       380300       33.1893
32.7971       380400       33.1877
32.8057       380500       33.1862
32.8143       380600       33.1846
32.823       380700       33.1831
32.8316       380800       33.1815
32.8402       380900       33.18
32.8488       381000       33.1784
32.8574       381100       33.1769
32.8661       381200       33.1753
32.8747       381300       33.1738
32.8833       381400       33.1722
32.8919       381500       33.1707
32.9006       381600       33.1692
32.9092       381700       33.1676
32.9178       381800       33.1661
32.9264       381900       33.1645
32.935       382000       33.163
32.9437       382100       33.1614
32.9523       382200       33.1599
32.9609       382300       33.1584
32.9695       382400       33.1568
32.9781       382500       33.1553
32.9868       382600       33.1537
32.9954       382700       33.1522
33.004       382800       33.1506
33.0126       382900       33.1491
33.0213       383000       33.1476
33.0299       383100       33.146
33.0385       383200       33.1445
33.0471       383300       33.143
33.0557       383400       33.1414
33.0644       383500       33.1399
33.073       383600       33.1383
33.0816       383700       33.1368
33.0902       383800       33.1353
33.0989       383900       33.1337
33.1075       384000       33.1322
33.1161       384100       33.1307
33.1247       384200       33.1291
33.1333       384300       33.1276
33.142       384400       33.1261
33.1506       384500       33.1245
33.1592       384600       33.123
33.1678       384700       33.1215
33.1764       384800       33.12
33.1851       384900       33.1184
33.1937       385000       33.1169
33.2023       385100       33.1154
33.2109       385200       33.1138
33.2196       385300       33.1123
33.2282       385400       33.1108
33.2368       385500       33.1093
33.2454       385600       33.1077
33.254       385700       33.1062
33.2627       385800       33.1047
33.2713       385900       33.1031
33.2799       386000       33.1016
33.2885       386100       33.1001
33.2972       386200       33.0986
33.3058       386300       33.0971
33.3144       386400       33.0955
33.323       386500       33.094
33.3316       386600       33.0925
33.3403       386700       33.091
33.3489       386800       33.0894
33.3575       386900       33.0879
33.3661       387000       33.0864
33.3747       387100       33.0849
33.3834       387200       33.0834
33.392       387300       33.0818
33.4006       387400       33.0803
33.4092       387500       33.0788
33.4179       387600       33.0773
33.4265       387700       33.0758
33.4351       387800       33.0743
33.4437       387900       33.0727
33.4523       388000       33.0712
33.461       388100       33.0697
33.4696       388200       33.0682
33.4782       388300       33.0667
33.4868       388400       33.0652
33.4955       388500       33.0637
33.5041       388600       33.0621
33.5127       388700       33.0606
33.5213       388800       33.0591
33.5299       388900       33.0576
33.5386       389000       33.0561
33.5472       389100       33.0546
33.5558       389200       33.0531
33.5644       389300       33.0516
33.573       389400       33.05
33.5817       389500       33.0485
33.5903       389600       33.047
33.5989       389700       33.0455
33.6075       389800       33.044
33.6162       389900       33.0425
33.6248       390000       33.041
33.6334       390100       33.0395
33.642       390200       33.038
33.6506       390300       33.0365
33.6593       390400       33.035
33.6679       390500       33.0335
33.6765       390600       33.032
33.6851       390700       33.0305
33.6938       390800       33.029
33.7024       390900       33.0275
33.711       391000       33.026
33.7196       391100       33.0245
33.7282       391200       33.023
33.7369       391300       33.0215
33.7455       391400       33.02
33.7541       391500       33.0185
33.7627       391600       33.017
33.7713       391700       33.0155
33.78       391800       33.014
33.7886       391900       33.0125
33.7972       392000       33.011
33.8058       392100       33.0095
33.8145       392200       33.008
33.8231       392300       33.0065
33.8317       392400       33.005
33.8403       392500       33.0035
33.8489       392600       33.002
33.8576       392700       33.0005
33.8662       392800       32.999
33.8748       392900       32.9975
33.8834       393000       32.996
33.8921       393100       32.9945
33.9007       393200       32.993
33.9093       393300       32.9915
33.9179       393400       32.99
33.9265       393500       32.9885
33.9352       393600       32.9871
33.9438       393700       32.9856
33.9524       393800       32.9841
33.961       393900       32.9826
33.9696       394000       32.9811
33.9783       394100       32.9796
33.9869       394200       32.9781
33.9955       394300       32.9766
34.0041       394400       32.9751
34.0128       394500       32.9737
34.0214       394600       32.9722
34.03       394700       32.9707
34.0386       394800       32.9692
34.0472       394900       32.9677
34.0559       395000       32.9662
34.0645       395100       32.9647
34.0731       395200       32.9633
34.0817       395300       32.9618
34.0904       395400       32.9603
34.099       395500       32.9588
34.1076       395600       32.9573
34.1162       395700       32.9559
34.1248       395800       32.9544
34.1335       395900       32.9529
34.1421       396000       32.9514
34.1507       396100       32.9499
34.1593       396200       32.9485
34.1679       396300       32.947
34.1766       396400       32.9455
34.1852       396500       32.944
34.1938       396600       32.9425
34.2024       396700       32.9411
34.2111       396800       32.9396
34.2197       396900       32.9381
34.2283       397000       32.9366
34.2369       397100       32.9352
34.2455       397200       32.9337
34.2542       397300       32.9322
34.2628       397400       32.9307
34.2714       397500       32.9293
34.28       397600       32.9278
34.2887       397700       32.9263
34.2973       397800       32.9248
34.3059       397900       32.9234
34.3145       398000       32.9219
34.3231       398100       32.9204
34.3318       398200       32.919
34.3404       398300       32.9175
34.349       398400       32.916
34.3576       398500       32.9145
34.3662       398600       32.9131
34.3749       398700       32.9116
34.3835       398800       32.9101
34.3921       398900       32.9087
34.4007       399000       32.9072
34.4094       399100       32.9057
34.418       399200       32.9043
34.4266       399300       32.9028
34.4352       399400       32.9013
34.4438       399500       32.8999
34.4525       399600       32.8984
34.4611       399700       32.8969
34.4697       399800       32.8955
34.4783       399900       32.894
34.487       400000       32.8926
