; The collision integrals Q_{i,j}^{11} are exponential fit function obtained from 
; Transport properties of high-temperature Jupiter atmosphere components, D. Bruno, C. Catalfamo, M. Capitelli, G. Colonna, O. De Pascale et al., Phys. Plasmas 17, 112315 (2010), doi: 10.1063/1.3495980, Published by the American Institute of Physics
; 
; 
; To obtain these collision integrals, the original data (transport cross section Q^l_{i,j} or elastic collision differential cross section) are obtained from:
;
; 1) P. S. KrstiÄ‡ and D. R. Schultz, J. Phys. B 32, 3485 1999.
;
; 1 atomic unit of square distance = 2.80e-17 cm^2
; 1eV = 11604K

2.80e-17


;        E             T             Q11
;       (eV)         (K)         (a.u.)

0.0862174       1000       69.6863
0.0948391       1100       66.823
0.103461       1200       64.333
0.112083       1300       62.1375
0.120704       1400       60.1786
0.129326       1500       58.4125
0.137948       1600       56.8053
0.14657       1700       55.3309
0.155191       1800       53.9682
0.163813       1900       52.7006
0.172435       2000       51.5143
0.181056       2100       50.3982
0.189678       2200       49.3431
0.1983       2300       48.3413
0.206922       2400       47.3864
0.215543       2500       46.473
0.224165       2600       45.5966
0.232787       2700       44.7532
0.241409       2800       43.9396
0.25003       2900       43.1529
0.258652       3000       42.3908
0.267274       3100       41.6512
0.275896       3200       40.9323
0.284517       3300       40.2326
0.293139       3400       39.5507
0.301761       3500       38.8855
0.310383       3600       38.2361
0.319004       3700       37.6014
0.327626       3800       36.9809
0.336248       3900       36.3738
0.34487       4000       35.7796
0.353491       4100       35.1978
0.362113       4200       34.6278
0.370735       4300       34.0694
0.379356       4400       33.5222
0.387978       4500       32.9859
0.3966       4600       32.4601
0.405222       4700       31.9446
0.413843       4800       31.4393
0.422465       4900       30.9438
0.431087       5000       30.458
0.439709       5100       29.9817
0.44833       5200       29.5147
0.456952       5300       29.0569
0.465574       5400       28.6081
0.474196       5500       28.1681
0.482817       5600       27.7367
0.491439       5700       27.3139
0.500061       5800       26.8995
0.508683       5900       26.4934
0.517304       6000       26.0954
0.525926       6100       25.7053
0.534548       6200       25.3231
0.543169       6300       24.9486
0.551791       6400       24.5817
0.560413       6500       24.2222
0.569035       6600       23.8701
0.577656       6700       23.525
0.586278       6800       23.1871
0.5949       6900       22.856
0.603522       7000       22.5318
0.612143       7100       22.2141
0.620765       7200       21.903
0.629387       7300       21.5983
0.638009       7400       21.2999
0.64663       7500       21.0076
0.655252       7600       20.7213
0.663874       7700       20.4409
0.672496       7800       20.1663
0.681117       7900       19.8973
0.689739       8000       19.6339
0.698361       8100       19.3759
0.706983       8200       19.1231
0.715604       8300       18.8756
0.724226       8400       18.6331
0.732848       8500       18.3955
0.741469       8600       18.1629
0.750091       8700       17.9349
0.758713       8800       17.7116
0.767335       8900       17.4928
0.775956       9000       17.2784
0.784578       9100       17.0684
0.7932       9200       16.8626
0.801822       9300       16.6609
0.810443       9400       16.4632
0.819065       9500       16.2695
0.827687       9600       16.0796
0.836309       9700       15.8935
0.84493       9800       15.7111
0.853552       9900       15.5323
0.862174       10000       15.3569
0.870796       10100       15.185
0.879417       10200       15.0164
0.888039       10300       14.8511
0.896661       10400       14.689
0.905282       10500       14.53
0.913904       10600       14.3741
0.922526       10700       14.2211
0.931148       10800       14.071
0.939769       10900       13.9238
0.948391       11000       13.7793
0.957013       11100       13.6375
0.965635       11200       13.4984
0.974256       11300       13.3618
0.982878       11400       13.2278
0.9915       11500       13.0962
1.00012       11600       12.967
1.00874       11700       12.8402
1.01737       11800       12.7157
1.02599       11900       12.5934
1.03461       12000       12.4733
1.04323       12100       12.3554
1.05185       12200       12.2395
1.06047       12300       12.1257
1.0691       12400       12.0139
1.07772       12500       11.904
1.08634       12600       11.7961
1.09496       12700       11.69
1.10358       12800       11.5857
1.1122       12900       11.4833
1.12083       13000       11.3825
1.12945       13100       11.2835
1.13807       13200       11.1861
1.14669       13300       11.0904
1.15531       13400       10.9963
1.16393       13500       10.9037
1.17256       13600       10.8126
1.18118       13700       10.723
1.1898       13800       10.6349
1.19842       13900       10.5483
1.20704       14000       10.463
1.21567       14100       10.3791
1.22429       14200       10.2965
1.23291       14300       10.2152
1.24153       14400       10.1352
1.25015       14500       10.0565
1.25877       14600       9.97896
1.2674       14700       9.90265
1.27602       14800       9.82751
1.28464       14900       9.75353
1.29326       15000       9.68068
1.30188       15100       9.60892
1.3105       15200       9.53826
1.31913       15300       9.46865
1.32775       15400       9.40007
1.33637       15500       9.33252
1.34499       15600       9.26596
1.35361       15700       9.20037
1.36223       15800       9.13574
1.37086       15900       9.07205
1.37948       16000       9.00928
1.3881       16100       8.9474
1.39672       16200       8.88641
1.40534       16300       8.82629
1.41397       16400       8.76701
1.42259       16500       8.70856
1.43121       16600       8.65093
1.43983       16700       8.5941
1.44845       16800       8.53805
1.45707       16900       8.48277
1.4657       17000       8.42824
1.47432       17100       8.37445
1.48294       17200       8.32139
1.49156       17300       8.26904
1.50018       17400       8.21739
1.5088       17500       8.16643
1.51743       17600       8.11614
1.52605       17700       8.06651
1.53467       17800       8.01752
1.54329       17900       7.96918
1.55191       18000       7.92145
1.56053       18100       7.87434
1.56916       18200       7.82784
1.57778       18300       7.78192
1.5864       18400       7.73658
1.59502       18500       7.69182
1.60364       18600       7.64761
1.61227       18700       7.60396
1.62089       18800       7.56084
1.62951       18900       7.51826
1.63813       19000       7.47619
1.64675       19100       7.43464
1.65537       19200       7.39359
1.664       19300       7.35304
1.67262       19400       7.31297
1.68124       19500       7.27338
1.68986       19600       7.23426
1.69848       19700       7.19561
1.7071       19800       7.1574
1.71573       19900       7.11964
1.72435       20000       7.08233
1.73297       20100       7.04544
1.74159       20200       7.00897
1.75021       20300       6.97293
1.75883       20400       6.93729
1.76746       20500       6.90206
1.77608       20600       6.86722
1.7847       20700       6.83278
1.79332       20800       6.79872
1.80194       20900       6.76503
1.81056       21000       6.73172
1.81919       21100       6.69878
1.82781       21200       6.66619
1.83643       21300       6.63396
1.84505       21400       6.60208
1.85367       21500       6.57054
1.8623       21600       6.53934
1.87092       21700       6.50847
1.87954       21800       6.47793
1.88816       21900       6.44771
1.89678       22000       6.41781
1.9054       22100       6.38822
1.91403       22200       6.35894
1.92265       22300       6.32996
1.93127       22400       6.30128
1.93989       22500       6.2729
1.94851       22600       6.2448
1.95713       22700       6.21699
1.96576       22800       6.18946
1.97438       22900       6.16221
1.983       23000       6.13523
1.99162       23100       6.10852
2.00024       23200       6.08207
2.00886       23300       6.05589
2.01749       23400       6.02996
2.02611       23500       6.00428
2.03473       23600       5.97886
2.04335       23700       5.95368
2.05197       23800       5.92874
2.0606       23900       5.90404
2.06922       24000       5.87958
2.07784       24100       5.85535
2.08646       24200       5.83135
2.09508       24300       5.80758
2.1037       24400       5.78402
2.11233       24500       5.76069
2.12095       24600       5.73758
2.12957       24700       5.71468
2.13819       24800       5.69199
2.14681       24900       5.6695
2.15543       25000       5.64722
2.16406       25100       5.62515
2.17268       25200       5.60327
2.1813       25300       5.58159
2.18992       25400       5.56011
2.19854       25500       5.53881
2.20716       25600       5.51771
2.21579       25700       5.49679
2.22441       25800       5.47606
2.23303       25900       5.4555
2.24165       26000       5.43513
2.25027       26100       5.41493
2.2589       26200       5.39491
2.26752       26300       5.37506
2.27614       26400       5.35538
2.28476       26500       5.33587
2.29338       26600       5.31653
2.302       26700       5.29735
2.31063       26800       5.27832
2.31925       26900       5.25946
2.32787       27000       5.24076
2.33649       27100       5.22221
2.34511       27200       5.20382
2.35373       27300       5.18558
2.36236       27400       5.16748
2.37098       27500       5.14954
2.3796       27600       5.13174
2.38822       27700       5.11409
2.39684       27800       5.09658
2.40546       27900       5.07921
2.41409       28000       5.06197
2.42271       28100       5.04488
2.43133       28200       5.02792
2.43995       28300       5.0111
2.44857       28400       4.99441
2.4572       28500       4.97785
2.46582       28600       4.96142
2.47444       28700       4.94511
2.48306       28800       4.92894
2.49168       28900       4.91288
2.5003       29000       4.89696
2.50893       29100       4.88115
2.51755       29200       4.86546
2.52617       29300       4.8499
2.53479       29400       4.83445
2.54341       29500       4.81912
2.55203       29600       4.8039
2.56066       29700       4.7888
2.56928       29800       4.7738
2.5779       29900       4.75892
2.58652       30000       4.74416
2.59514       30100       4.72949
2.60376       30200       4.71494
2.61239       30300       4.70049
2.62101       30400       4.68615
2.62963       30500       4.67191
2.63825       30600       4.65778
2.64687       30700       4.64375
2.6555       30800       4.62981
2.66412       30900       4.61598
2.67274       31000       4.60224
2.68136       31100       4.58861
2.68998       31200       4.57506
2.6986       31300       4.56162
2.70723       31400       4.54827
2.71585       31500       4.53501
2.72447       31600       4.52184
2.73309       31700       4.50877
2.74171       31800       4.49578
2.75033       31900       4.48288
2.75896       32000       4.47008
2.76758       32100       4.45736
2.7762       32200       4.44472
2.78482       32300       4.43218
2.79344       32400       4.41971
2.80206       32500       4.40733
2.81069       32600       4.39504
2.81931       32700       4.38282
2.82793       32800       4.37069
2.83655       32900       4.35864
2.84517       33000       4.34666
2.8538       33100       4.33477
2.86242       33200       4.32295
2.87104       33300       4.31122
2.87966       33400       4.29955
2.88828       33500       4.28797
2.8969       33600       4.27645
2.90553       33700       4.26502
2.91415       33800       4.25365
2.92277       33900       4.24236
2.93139       34000       4.23114
2.94001       34100       4.21999
2.94863       34200       4.20892
2.95726       34300       4.19791
2.96588       34400       4.18697
2.9745       34500       4.1761
2.98312       34600       4.1653
2.99174       34700       4.15456
3.00036       34800       4.1439
3.00899       34900       4.13329
3.01761       35000       4.12276
3.02623       35100       4.11229
3.03485       35200       4.10188
3.04347       35300       4.09153
3.0521       35400       4.08125
3.06072       35500       4.07103
3.06934       35600       4.06088
3.07796       35700       4.05078
3.08658       35800       4.04074
3.0952       35900       4.03077
3.10383       36000       4.02085
3.11245       36100       4.01099
3.12107       36200       4.00119
3.12969       36300       3.99145
3.13831       36400       3.98177
3.14693       36500       3.97214
3.15556       36600       3.96257
3.16418       36700       3.95306
3.1728       36800       3.9436
3.18142       36900       3.93419
3.19004       37000       3.92484
3.19866       37100       3.91554
3.20729       37200       3.9063
3.21591       37300       3.89711
3.22453       37400       3.88797
3.23315       37500       3.87888
3.24177       37600       3.86985
3.2504       37700       3.86086
3.25902       37800       3.85193
3.26764       37900       3.84304
3.27626       38000       3.83421
3.28488       38100       3.82542
3.2935       38200       3.81669
3.30213       38300       3.808
3.31075       38400       3.79936
3.31937       38500       3.79077
3.32799       38600       3.78222
3.33661       38700       3.77372
3.34523       38800       3.76527
3.35386       38900       3.75687
3.36248       39000       3.7485
3.3711       39100       3.74019
3.37972       39200       3.73192
3.38834       39300       3.72369
3.39696       39400       3.71551
3.40559       39500       3.70737
3.41421       39600       3.69927
3.42283       39700       3.69122
3.43145       39800       3.68321
3.44007       39900       3.67524
3.4487       40000       3.66732
3.45732       40100       3.65943
3.46594       40200       3.65159
3.47456       40300       3.64379
3.48318       40400       3.63603
3.4918       40500       3.62831
3.50043       40600       3.62062
3.50905       40700       3.61298
3.51767       40800       3.60538
3.52629       40900       3.59782
3.53491       41000       3.59029
3.54353       41100       3.5828
3.55216       41200       3.57535
3.56078       41300       3.56794
3.5694       41400       3.56057
3.57802       41500       3.55323
3.58664       41600       3.54593
3.59526       41700       3.53867
3.60389       41800       3.53144
3.61251       41900       3.52425
3.62113       42000       3.5171
3.62975       42100       3.50998
3.63837       42200       3.50289
3.647       42300       3.49584
3.65562       42400       3.48882
3.66424       42500       3.48184
3.67286       42600       3.4749
3.68148       42700       3.46798
3.6901       42800       3.4611
3.69873       42900       3.45426
3.70735       43000       3.44744
3.71597       43100       3.44066
3.72459       43200       3.43391
3.73321       43300       3.4272
3.74183       43400       3.42051
3.75046       43500       3.41386
3.75908       43600       3.40724
3.7677       43700       3.40065
3.77632       43800       3.39409
3.78494       43900       3.38756
3.79356       44000       3.38107
3.80219       44100       3.3746
3.81081       44200       3.36817
3.81943       44300       3.36176
3.82805       44400       3.35538
3.83667       44500       3.34904
3.8453       44600       3.34272
3.85392       44700       3.33643
3.86254       44800       3.33017
3.87116       44900       3.32394
3.87978       45000       3.31774
3.8884       45100       3.31156
3.89703       45200       3.30542
3.90565       45300       3.2993
3.91427       45400       3.29321
3.92289       45500       3.28714
3.93151       45600       3.28111
3.94013       45700       3.2751
3.94876       45800       3.26912
3.95738       45900       3.26316
3.966       46000       3.25723
3.97462       46100       3.25133
3.98324       46200       3.24546
3.99186       46300       3.23961
4.00049       46400       3.23378
4.00911       46500       3.22798
4.01773       46600       3.22221
4.02635       46700       3.21646
4.03497       46800       3.21074
4.0436       46900       3.20504
4.05222       47000       3.19937
4.06084       47100       3.19372
4.06946       47200       3.18809
4.07808       47300       3.18249
4.0867       47400       3.17692
4.09533       47500       3.17136
4.10395       47600       3.16584
4.11257       47700       3.16033
4.12119       47800       3.15485
4.12981       47900       3.14939
4.13843       48000       3.14396
4.14706       48100       3.13854
4.15568       48200       3.13315
4.1643       48300       3.12779
4.17292       48400       3.12244
4.18154       48500       3.11712
4.19016       48600       3.11182
4.19879       48700       3.10654
4.20741       48800       3.10129
4.21603       48900       3.09605
4.22465       49000       3.09084
4.23327       49100       3.08565
4.2419       49200       3.08048
4.25052       49300       3.07533
4.25914       49400       3.07021
4.26776       49500       3.0651
4.27638       49600       3.06001
4.285       49700       3.05495
4.29363       49800       3.0499
4.30225       49900       3.04488
4.31087       50000       3.03988
4.31949       50100       3.03489
4.32811       50200       3.02993
4.33673       50300       3.02499
4.34536       50400       3.02006
4.35398       50500       3.01516
4.3626       50600       3.01027
4.37122       50700       3.00541
4.37984       50800       3.00056
4.38846       50900       2.99573
4.39709       51000       2.99093
4.40571       51100       2.98614
4.41433       51200       2.98137
4.42295       51300       2.97662
4.43157       51400       2.97188
4.4402       51500       2.96717
4.44882       51600       2.96247
4.45744       51700       2.95779
4.46606       51800       2.95313
4.47468       51900       2.94849
4.4833       52000       2.94387
4.49193       52100       2.93926
4.50055       52200       2.93467
4.50917       52300       2.9301
4.51779       52400       2.92555
4.52641       52500       2.92101
4.53503       52600       2.91649
4.54366       52700       2.91199
4.55228       52800       2.90751
4.5609       52900       2.90304
4.56952       53000       2.89859
4.57814       53100       2.89415
4.58676       53200       2.88974
4.59539       53300       2.88533
4.60401       53400       2.88095
4.61263       53500       2.87658
4.62125       53600       2.87223
4.62987       53700       2.86789
4.6385       53800       2.86357
4.64712       53900       2.85927
4.65574       54000       2.85498
4.66436       54100       2.85071
4.67298       54200       2.84645
4.6816       54300       2.84221
4.69023       54400       2.83799
4.69885       54500       2.83378
4.70747       54600       2.82958
4.71609       54700       2.8254
4.72471       54800       2.82124
4.73333       54900       2.81709
4.74196       55000       2.81295
4.75058       55100       2.80883
4.7592       55200       2.80473
4.76782       55300       2.80064
4.77644       55400       2.79656
4.78506       55500       2.7925
4.79369       55600       2.78845
4.80231       55700       2.78442
4.81093       55800       2.7804
4.81955       55900       2.7764
4.82817       56000       2.77241
4.8368       56100       2.76844
4.84542       56200       2.76448
4.85404       56300       2.76053
4.86266       56400       2.75659
4.87128       56500       2.75267
4.8799       56600       2.74877
4.88853       56700       2.74488
4.89715       56800       2.741
4.90577       56900       2.73713
4.91439       57000       2.73328
4.92301       57100       2.72944
4.93163       57200       2.72561
4.94026       57300       2.7218
4.94888       57400       2.718
4.9575       57500       2.71421
4.96612       57600       2.71044
4.97474       57700       2.70668
4.98336       57800       2.70293
4.99199       57900       2.6992
5.00061       58000       2.69547
5.00923       58100       2.69176
5.01785       58200       2.68807
5.02647       58300       2.68438
5.03509       58400       2.68071
5.04372       58500       2.67705
5.05234       58600       2.6734
5.06096       58700       2.66977
5.06958       58800       2.66614
5.0782       58900       2.66253
5.08683       59000       2.65893
5.09545       59100       2.65534
5.10407       59200       2.65177
5.11269       59300       2.6482
5.12131       59400       2.64465
5.12993       59500       2.64111
5.13856       59600       2.63758
5.14718       59700       2.63407
5.1558       59800       2.63056
5.16442       59900       2.62707
5.17304       60000       2.62358
5.18166       60100       2.62011
5.19029       60200       2.61665
5.19891       60300       2.6132
5.20753       60400       2.60976
5.21615       60500       2.60634
5.22477       60600       2.60292
5.23339       60700       2.59952
5.24202       60800       2.59612
5.25064       60900       2.59274
5.25926       61000       2.58937
5.26788       61100       2.58601
5.2765       61200       2.58265
5.28513       61300       2.57931
5.29375       61400       2.57599
5.30237       61500       2.57267
5.31099       61600       2.56936
5.31961       61700       2.56606
5.32823       61800       2.56277
5.33686       61900       2.55949
5.34548       62000       2.55623
5.3541       62100       2.55297
5.36272       62200       2.54972
5.37134       62300       2.54649
5.37996       62400       2.54326
5.38859       62500       2.54005
5.39721       62600       2.53684
5.40583       62700       2.53364
5.41445       62800       2.53046
5.42307       62900       2.52728
5.43169       63000       2.52411
5.44032       63100       2.52096
5.44894       63200       2.51781
5.45756       63300       2.51467
5.46618       63400       2.51154
5.4748       63500       2.50842
5.48343       63600       2.50531
5.49205       63700       2.50221
5.50067       63800       2.49912
5.50929       63900       2.49604
5.51791       64000       2.49297
5.52653       64100       2.48991
5.53516       64200       2.48686
5.54378       64300       2.48381
5.5524       64400       2.48078
5.56102       64500       2.47775
5.56964       64600       2.47473
5.57826       64700       2.47173
5.58689       64800       2.46873
5.59551       64900       2.46574
5.60413       65000       2.46276
5.61275       65100       2.45978
5.62137       65200       2.45682
5.62999       65300       2.45387
5.63862       65400       2.45092
5.64724       65500       2.44798
5.65586       65600       2.44506
5.66448       65700       2.44214
5.6731       65800       2.43922
5.68173       65900       2.43632
5.69035       66000       2.43343
5.69897       66100       2.43054
5.70759       66200       2.42766
5.71621       66300       2.4248
5.72483       66400       2.42193
5.73346       66500       2.41908
5.74208       66600       2.41624
5.7507       66700       2.4134
5.75932       66800       2.41057
5.76794       66900       2.40775
5.77656       67000       2.40494
5.78519       67100       2.40214
5.79381       67200       2.39934
5.80243       67300       2.39656
5.81105       67400       2.39378
5.81967       67500       2.391
5.82829       67600       2.38824
5.83692       67700       2.38548
5.84554       67800       2.38274
5.85416       67900       2.37999
5.86278       68000       2.37726
5.8714       68100       2.37454
5.88003       68200       2.37182
5.88865       68300       2.36911
5.89727       68400       2.36641
5.90589       68500       2.36371
5.91451       68600       2.36103
5.92313       68700       2.35835
5.93176       68800       2.35567
5.94038       68900       2.35301
5.949       69000       2.35035
5.95762       69100       2.3477
5.96624       69200       2.34506
5.97486       69300       2.34242
5.98349       69400       2.3398
5.99211       69500       2.33718
6.00073       69600       2.33456
6.00935       69700       2.33196
6.01797       69800       2.32936
6.02659       69900       2.32676
6.03522       70000       2.32418
6.04384       70100       2.3216
6.05246       70200       2.31903
6.06108       70300       2.31647
6.0697       70400       2.31391
6.07833       70500       2.31136
6.08695       70600       2.30881
6.09557       70700       2.30628
6.10419       70800       2.30375
6.11281       70900       2.30123
6.12143       71000       2.29871
6.13006       71100       2.2962
6.13868       71200       2.2937
6.1473       71300       2.2912
6.15592       71400       2.28871
6.16454       71500       2.28623
6.17316       71600       2.28375
6.18179       71700       2.28128
6.19041       71800       2.27882
6.19903       71900       2.27637
6.20765       72000       2.27392
6.21627       72100       2.27147
6.22489       72200       2.26904
6.23352       72300       2.2666
6.24214       72400       2.26418
6.25076       72500       2.26176
6.25938       72600       2.25935
6.268       72700       2.25695
6.27663       72800       2.25455
6.28525       72900       2.25215
6.29387       73000       2.24977
6.30249       73100       2.24739
6.31111       73200       2.24501
6.31973       73300       2.24265
6.32836       73400       2.24028
6.33698       73500       2.23793
6.3456       73600       2.23558
6.35422       73700       2.23324
6.36284       73800       2.2309
6.37146       73900       2.22857
6.38009       74000       2.22624
6.38871       74100       2.22392
6.39733       74200       2.22161
6.40595       74300       2.2193
6.41457       74400       2.217
6.42319       74500       2.2147
6.43182       74600       2.21241
6.44044       74700       2.21013
6.44906       74800       2.20785
6.45768       74900       2.20558
6.4663       75000       2.20331
6.47493       75100       2.20105
6.48355       75200       2.19879
6.49217       75300       2.19654
6.50079       75400       2.1943
6.50941       75500       2.19206
6.51803       75600       2.18982
6.52666       75700       2.1876
6.53528       75800       2.18538
6.5439       75900       2.18316
6.55252       76000       2.18095
6.56114       76100       2.17874
6.56976       76200       2.17654
6.57839       76300       2.17435
6.58701       76400       2.17216
6.59563       76500       2.16997
6.60425       76600       2.1678
6.61287       76700       2.16562
6.62149       76800       2.16346
6.63012       76900       2.16129
6.63874       77000       2.15914
6.64736       77100       2.15698
6.65598       77200       2.15484
6.6646       77300       2.1527
6.67323       77400       2.15056
6.68185       77500       2.14843
6.69047       77600       2.1463
6.69909       77700       2.14418
6.70771       77800       2.14207
6.71633       77900       2.13996
6.72496       78000       2.13785
6.73358       78100       2.13575
6.7422       78200       2.13366
6.75082       78300       2.13157
6.75944       78400       2.12948
6.76806       78500       2.1274
6.77669       78600       2.12533
6.78531       78700       2.12326
6.79393       78800       2.12119
6.80255       78900       2.11913
6.81117       79000       2.11707
6.81979       79100       2.11502
6.82842       79200       2.11298
6.83704       79300       2.11094
6.84566       79400       2.1089
6.85428       79500       2.10687
6.8629       79600       2.10484
6.87153       79700       2.10282
6.88015       79800       2.10081
6.88877       79900       2.09879
6.89739       80000       2.09679
6.90601       80100       2.09478
6.91463       80200       2.09279
6.92326       80300       2.09079
6.93188       80400       2.0888
6.9405       80500       2.08682
6.94912       80600       2.08484
6.95774       80700       2.08287
6.96636       80800       2.0809
6.97499       80900       2.07893
6.98361       81000       2.07697
6.99223       81100       2.07501
7.00085       81200       2.07306
7.00947       81300       2.07111
7.01809       81400       2.06917
7.02672       81500       2.06723
7.03534       81600       2.0653
7.04396       81700       2.06337
7.05258       81800       2.06144
7.0612       81900       2.05952
7.06983       82000       2.05761
7.07845       82100       2.05569
7.08707       82200       2.05379
7.09569       82300       2.05188
7.10431       82400       2.04998
7.11293       82500       2.04809
7.12156       82600       2.0462
7.13018       82700       2.04431
7.1388       82800       2.04243
7.14742       82900       2.04055
7.15604       83000       2.03868
7.16466       83100       2.03681
7.17329       83200       2.03494
7.18191       83300       2.03308
7.19053       83400       2.03123
7.19915       83500       2.02937
7.20777       83600       2.02752
7.21639       83700       2.02568
7.22502       83800       2.02384
7.23364       83900       2.022
7.24226       84000       2.02017
7.25088       84100       2.01834
7.2595       84200       2.01652
7.26813       84300       2.0147
7.27675       84400       2.01288
7.28537       84500       2.01107
7.29399       84600       2.00926
7.30261       84700       2.00746
7.31123       84800       2.00566
7.31986       84900       2.00386
7.32848       85000       2.00207
7.3371       85100       2.00028
7.34572       85200       1.9985
7.35434       85300       1.99672
7.36296       85400       1.99494
7.37159       85500       1.99317
7.38021       85600       1.9914
7.38883       85700       1.98964
7.39745       85800       1.98788
7.40607       85900       1.98612
7.41469       86000       1.98436
7.42332       86100       1.98262
7.43194       86200       1.98087
7.44056       86300       1.97913
7.44918       86400       1.97739
7.4578       86500       1.97565
7.46643       86600       1.97392
7.47505       86700       1.9722
7.48367       86800       1.97047
7.49229       86900       1.96875
7.50091       87000       1.96704
7.50953       87100       1.96532
7.51816       87200       1.96362
7.52678       87300       1.96191
7.5354       87400       1.96021
7.54402       87500       1.95851
7.55264       87600       1.95682
7.56126       87700       1.95513
7.56989       87800       1.95344
7.57851       87900       1.95175
7.58713       88000       1.95007
7.59575       88100       1.9484
7.60437       88200       1.94673
7.61299       88300       1.94506
7.62162       88400       1.94339
7.63024       88500       1.94173
7.63886       88600       1.94007
7.64748       88700       1.93841
7.6561       88800       1.93676
7.66473       88900       1.93511
7.67335       89000       1.93347
7.68197       89100       1.93183
7.69059       89200       1.93019
7.69921       89300       1.92855
7.70783       89400       1.92692
7.71646       89500       1.92529
7.72508       89600       1.92367
7.7337       89700       1.92205
7.74232       89800       1.92043
7.75094       89900       1.91881
7.75956       90000       1.9172
7.76819       90100       1.91559
7.77681       90200       1.91399
7.78543       90300       1.91239
7.79405       90400       1.91079
7.80267       90500       1.90919
7.81129       90600       1.9076
7.81992       90700       1.90601
7.82854       90800       1.90443
7.83716       90900       1.90285
7.84578       91000       1.90127
7.8544       91100       1.89969
7.86303       91200       1.89812
7.87165       91300       1.89655
7.88027       91400       1.89498
7.88889       91500       1.89342
7.89751       91600       1.89186
7.90613       91700       1.8903
7.91476       91800       1.88875
7.92338       91900       1.8872
7.932       92000       1.88565
7.94062       92100       1.88411
7.94924       92200       1.88257
7.95786       92300       1.88103
7.96649       92400       1.87949
7.97511       92500       1.87796
7.98373       92600       1.87643
7.99235       92700       1.87491
8.00097       92800       1.87339
8.00959       92900       1.87187
8.01822       93000       1.87035
8.02684       93100       1.86884
8.03546       93200       1.86732
8.04408       93300       1.86582
8.0527       93400       1.86431
8.06133       93500       1.86281
8.06995       93600       1.86131
8.07857       93700       1.85982
8.08719       93800       1.85832
8.09581       93900       1.85683
8.10443       94000       1.85535
8.11306       94100       1.85386
8.12168       94200       1.85238
8.1303       94300       1.8509
8.13892       94400       1.84943
8.14754       94500       1.84795
8.15616       94600       1.84648
8.16479       94700       1.84502
8.17341       94800       1.84355
8.18203       94900       1.84209
8.19065       95000       1.84063
8.19927       95100       1.83918
8.20789       95200       1.83773
8.21652       95300       1.83628
8.22514       95400       1.83483
8.23376       95500       1.83338
8.24238       95600       1.83194
8.251       95700       1.8305
8.25963       95800       1.82907
8.26825       95900       1.82764
8.27687       96000       1.8262
8.28549       96100       1.82478
8.29411       96200       1.82335
8.30273       96300       1.82193
8.31136       96400       1.82051
8.31998       96500       1.81909
8.3286       96600       1.81768
8.33722       96700       1.81627
8.34584       96800       1.81486
8.35446       96900       1.81345
8.36309       97000       1.81205
8.37171       97100       1.81065
8.38033       97200       1.80925
8.38895       97300       1.80785
8.39757       97400       1.80646
8.40619       97500       1.80507
8.41482       97600       1.80368
8.42344       97700       1.8023
8.43206       97800       1.80092
8.44068       97900       1.79954
8.4493       98000       1.79816
8.45792       98100       1.79678
8.46655       98200       1.79541
8.47517       98300       1.79404
8.48379       98400       1.79268
8.49241       98500       1.79131
8.50103       98600       1.78995
8.50966       98700       1.78859
8.51828       98800       1.78723
8.5269       98900       1.78588
8.53552       99000       1.78453
8.54414       99100       1.78318
8.55276       99200       1.78183
8.56139       99300       1.78049
8.57001       99400       1.77914
8.57863       99500       1.7778
8.58725       99600       1.77647
8.59587       99700       1.77513
8.60449       99800       1.7738
8.61312       99900       1.77247
8.62174       100000       1.77114
8.63036       100100       1.76982
8.63898       100200       1.7685
8.6476       100300       1.76718
8.65622       100400       1.76586
8.66485       100500       1.76454
8.67347       100600       1.76323
8.68209       100700       1.76192
8.69071       100800       1.76061
8.69933       100900       1.75931
8.70796       101000       1.758
8.71658       101100       1.7567
8.7252       101200       1.7554
8.73382       101300       1.75411
8.74244       101400       1.75281
8.75106       101500       1.75152
8.75969       101600       1.75023
8.76831       101700       1.74895
8.77693       101800       1.74766
8.78555       101900       1.74638
8.79417       102000       1.7451
8.80279       102100       1.74382
8.81142       102200       1.74255
8.82004       102300       1.74127
8.82866       102400       1.74
8.83728       102500       1.73873
8.8459       102600       1.73747
8.85452       102700       1.7362
8.86315       102800       1.73494
8.87177       102900       1.73368
8.88039       103000       1.73243
8.88901       103100       1.73117
8.89763       103200       1.72992
8.90626       103300       1.72867
8.91488       103400       1.72742
8.9235       103500       1.72617
8.93212       103600       1.72493
8.94074       103700       1.72369
8.94936       103800       1.72245
8.95799       103900       1.72121
8.96661       104000       1.71997
8.97523       104100       1.71874
8.98385       104200       1.71751
8.99247       104300       1.71628
9.00109       104400       1.71505
9.00972       104500       1.71383
9.01834       104600       1.71261
9.02696       104700       1.71139
9.03558       104800       1.71017
9.0442       104900       1.70895
9.05282       105000       1.70774
9.06145       105100       1.70653
9.07007       105200       1.70532
9.07869       105300       1.70411
9.08731       105400       1.7029
9.09593       105500       1.7017
9.10456       105600       1.7005
9.11318       105700       1.6993
9.1218       105800       1.6981
9.13042       105900       1.69691
9.13904       106000       1.69571
9.14766       106100       1.69452
9.15629       106200       1.69333
9.16491       106300       1.69215
9.17353       106400       1.69096
9.18215       106500       1.68978
9.19077       106600       1.6886
9.19939       106700       1.68742
9.20802       106800       1.68624
9.21664       106900       1.68507
9.22526       107000       1.68389
9.23388       107100       1.68272
9.2425       107200       1.68155
9.25112       107300       1.68039
9.25975       107400       1.67922
9.26837       107500       1.67806
9.27699       107600       1.6769
9.28561       107700       1.67574
9.29423       107800       1.67458
9.30286       107900       1.67343
9.31148       108000       1.67227
9.3201       108100       1.67112
9.32872       108200       1.66997
9.33734       108300       1.66883
9.34596       108400       1.66768
9.35459       108500       1.66654
9.36321       108600       1.66539
9.37183       108700       1.66425
9.38045       108800       1.66312
9.38907       108900       1.66198
9.39769       109000       1.66085
9.40632       109100       1.65971
9.41494       109200       1.65858
9.42356       109300       1.65746
9.43218       109400       1.65633
9.4408       109500       1.6552
9.44942       109600       1.65408
9.45805       109700       1.65296
9.46667       109800       1.65184
9.47529       109900       1.65072
9.48391       110000       1.64961
9.49253       110100       1.6485
9.50116       110200       1.64738
9.50978       110300       1.64627
9.5184       110400       1.64517
9.52702       110500       1.64406
9.53564       110600       1.64296
9.54426       110700       1.64185
9.55289       110800       1.64075
9.56151       110900       1.63965
9.57013       111000       1.63856
9.57875       111100       1.63746
9.58737       111200       1.63637
9.59599       111300       1.63527
9.60462       111400       1.63418
9.61324       111500       1.6331
9.62186       111600       1.63201
9.63048       111700       1.63092
9.6391       111800       1.62984
9.64772       111900       1.62876
9.65635       112000       1.62768
9.66497       112100       1.6266
9.67359       112200       1.62553
9.68221       112300       1.62445
9.69083       112400       1.62338
9.69946       112500       1.62231
9.70808       112600       1.62124
9.7167       112700       1.62017
9.72532       112800       1.61911
9.73394       112900       1.61804
9.74256       113000       1.61698
9.75119       113100       1.61592
9.75981       113200       1.61486
9.76843       113300       1.6138
9.77705       113400       1.61275
9.78567       113500       1.6117
9.79429       113600       1.61064
9.80292       113700       1.60959
9.81154       113800       1.60854
9.82016       113900       1.6075
9.82878       114000       1.60645
9.8374       114100       1.60541
9.84602       114200       1.60437
9.85465       114300       1.60332
9.86327       114400       1.60229
9.87189       114500       1.60125
9.88051       114600       1.60021
9.88913       114700       1.59918
9.89776       114800       1.59815
9.90638       114900       1.59712
9.915       115000       1.59609
9.92362       115100       1.59506
9.93224       115200       1.59403
9.94086       115300       1.59301
9.94949       115400       1.59199
9.95811       115500       1.59097
9.96673       115600       1.58995
9.97535       115700       1.58893
9.98397       115800       1.58791
9.99259       115900       1.5869
10.0012       116000       1.58589
10.0098       116100       1.58487
10.0185       116200       1.58386
10.0271       116300       1.58286
10.0357       116400       1.58185
10.0443       116500       1.58084
10.0529       116600       1.57984
10.0616       116700       1.57884
10.0702       116800       1.57784
10.0788       116900       1.57684
10.0874       117000       1.57584
10.0961       117100       1.57484
10.1047       117200       1.57385
10.1133       117300       1.57286
10.1219       117400       1.57187
10.1305       117500       1.57088
10.1392       117600       1.56989
10.1478       117700       1.5689
10.1564       117800       1.56792
10.165       117900       1.56693
10.1737       118000       1.56595
10.1823       118100       1.56497
10.1909       118200       1.56399
10.1995       118300       1.56301
10.2081       118400       1.56204
10.2168       118500       1.56106
10.2254       118600       1.56009
10.234       118700       1.55912
10.2426       118800       1.55815
10.2512       118900       1.55718
10.2599       119000       1.55621
10.2685       119100       1.55524
10.2771       119200       1.55428
10.2857       119300       1.55332
10.2944       119400       1.55235
10.303       119500       1.55139
10.3116       119600       1.55044
10.3202       119700       1.54948
10.3288       119800       1.54852
10.3375       119900       1.54757
10.3461       120000       1.54662
10.3547       120100       1.54566
10.3633       120200       1.54471
10.372       120300       1.54377
10.3806       120400       1.54282
10.3892       120500       1.54187
10.3978       120600       1.54093
10.4064       120700       1.53999
10.4151       120800       1.53904
10.4237       120900       1.5381
10.4323       121000       1.53716
10.4409       121100       1.53623
10.4495       121200       1.53529
10.4582       121300       1.53436
10.4668       121400       1.53342
10.4754       121500       1.53249
10.484       121600       1.53156
10.4927       121700       1.53063
10.5013       121800       1.5297
10.5099       121900       1.52878
10.5185       122000       1.52785
10.5271       122100       1.52693
10.5358       122200       1.52601
10.5444       122300       1.52509
10.553       122400       1.52417
10.5616       122500       1.52325
10.5703       122600       1.52233
10.5789       122700       1.52142
10.5875       122800       1.5205
10.5961       122900       1.51959
10.6047       123000       1.51868
10.6134       123100       1.51777
10.622       123200       1.51686
10.6306       123300       1.51595
10.6392       123400       1.51505
10.6478       123500       1.51414
10.6565       123600       1.51324
10.6651       123700       1.51234
10.6737       123800       1.51143
10.6823       123900       1.51054
10.691       124000       1.50964
10.6996       124100       1.50874
10.7082       124200       1.50784
10.7168       124300       1.50695
10.7254       124400       1.50606
10.7341       124500       1.50517
10.7427       124600       1.50427
10.7513       124700       1.50339
10.7599       124800       1.5025
10.7686       124900       1.50161
10.7772       125000       1.50073
10.7858       125100       1.49984
10.7944       125200       1.49896
10.803       125300       1.49808
10.8117       125400       1.4972
10.8203       125500       1.49632
10.8289       125600       1.49544
10.8375       125700       1.49456
10.8461       125800       1.49369
10.8548       125900       1.49281
10.8634       126000       1.49194
10.872       126100       1.49107
10.8806       126200       1.4902
10.8893       126300       1.48933
10.8979       126400       1.48846
10.9065       126500       1.4876
10.9151       126600       1.48673
10.9237       126700       1.48587
10.9324       126800       1.485
10.941       126900       1.48414
10.9496       127000       1.48328
10.9582       127100       1.48242
10.9669       127200       1.48156
10.9755       127300       1.48071
10.9841       127400       1.47985
10.9927       127500       1.479
11.0013       127600       1.47814
11.01       127700       1.47729
11.0186       127800       1.47644
11.0272       127900       1.47559
11.0358       128000       1.47474
11.0444       128100       1.4739
11.0531       128200       1.47305
11.0617       128300       1.4722
11.0703       128400       1.47136
11.0789       128500       1.47052
11.0876       128600       1.46968
11.0962       128700       1.46884
11.1048       128800       1.468
11.1134       128900       1.46716
11.122       129000       1.46632
11.1307       129100       1.46549
11.1393       129200       1.46465
11.1479       129300       1.46382
11.1565       129400       1.46299
11.1652       129500       1.46216
11.1738       129600       1.46133
11.1824       129700       1.4605
11.191       129800       1.45967
11.1996       129900       1.45885
11.2083       130000       1.45802
11.2169       130100       1.4572
11.2255       130200       1.45637
11.2341       130300       1.45555
11.2427       130400       1.45473
11.2514       130500       1.45391
11.26       130600       1.45309
11.2686       130700       1.45228
11.2772       130800       1.45146
11.2859       130900       1.45064
11.2945       131000       1.44983
11.3031       131100       1.44902
11.3117       131200       1.44821
11.3203       131300       1.4474
11.329       131400       1.44659
11.3376       131500       1.44578
11.3462       131600       1.44497
11.3548       131700       1.44416
11.3635       131800       1.44336
11.3721       131900       1.44255
11.3807       132000       1.44175
11.3893       132100       1.44095
11.3979       132200       1.44015
11.4066       132300       1.43935
11.4152       132400       1.43855
11.4238       132500       1.43775
11.4324       132600       1.43696
11.441       132700       1.43616
11.4497       132800       1.43537
11.4583       132900       1.43457
11.4669       133000       1.43378
11.4755       133100       1.43299
11.4842       133200       1.4322
11.4928       133300       1.43141
11.5014       133400       1.43062
11.51       133500       1.42984
11.5186       133600       1.42905
11.5273       133700       1.42827
11.5359       133800       1.42748
11.5445       133900       1.4267
11.5531       134000       1.42592
11.5618       134100       1.42514
11.5704       134200       1.42436
11.579       134300       1.42358
11.5876       134400       1.4228
11.5962       134500       1.42203
11.6049       134600       1.42125
11.6135       134700       1.42048
11.6221       134800       1.4197
11.6307       134900       1.41893
11.6393       135000       1.41816
11.648       135100       1.41739
11.6566       135200       1.41662
11.6652       135300       1.41585
11.6738       135400       1.41509
11.6825       135500       1.41432
11.6911       135600       1.41355
11.6997       135700       1.41279
11.7083       135800       1.41203
11.7169       135900       1.41126
11.7256       136000       1.4105
11.7342       136100       1.40974
11.7428       136200       1.40898
11.7514       136300       1.40823
11.7601       136400       1.40747
11.7687       136500       1.40671
11.7773       136600       1.40596
11.7859       136700       1.4052
11.7945       136800       1.40445
11.8032       136900       1.4037
11.8118       137000       1.40295
11.8204       137100       1.4022
11.829       137200       1.40145
11.8376       137300       1.4007
11.8463       137400       1.39995
11.8549       137500       1.3992
11.8635       137600       1.39846
11.8721       137700       1.39772
11.8808       137800       1.39697
11.8894       137900       1.39623
11.898       138000       1.39549
11.9066       138100       1.39475
11.9152       138200       1.39401
11.9239       138300       1.39327
11.9325       138400       1.39253
11.9411       138500       1.39179
11.9497       138600       1.39106
11.9584       138700       1.39032
11.967       138800       1.38959
11.9756       138900       1.38886
11.9842       139000       1.38812
11.9928       139100       1.38739
12.0015       139200       1.38666
12.0101       139300       1.38593
12.0187       139400       1.38521
12.0273       139500       1.38448
12.0359       139600       1.38375
12.0446       139700       1.38303
12.0532       139800       1.3823
12.0618       139900       1.38158
12.0704       140000       1.38085
12.0791       140100       1.38013
12.0877       140200       1.37941
12.0963       140300       1.37869
12.1049       140400       1.37797
12.1135       140500       1.37725
12.1222       140600       1.37654
12.1308       140700       1.37582
12.1394       140800       1.37511
12.148       140900       1.37439
12.1567       141000       1.37368
12.1653       141100       1.37296
12.1739       141200       1.37225
12.1825       141300       1.37154
12.1911       141400       1.37083
12.1998       141500       1.37012
12.2084       141600       1.36941
12.217       141700       1.36871
12.2256       141800       1.368
12.2342       141900       1.3673
12.2429       142000       1.36659
12.2515       142100       1.36589
12.2601       142200       1.36518
12.2687       142300       1.36448
12.2774       142400       1.36378
12.286       142500       1.36308
12.2946       142600       1.36238
12.3032       142700       1.36168
12.3118       142800       1.36098
12.3205       142900       1.36029
12.3291       143000       1.35959
12.3377       143100       1.3589
12.3463       143200       1.3582
12.355       143300       1.35751
12.3636       143400       1.35682
12.3722       143500       1.35612
12.3808       143600       1.35543
12.3894       143700       1.35474
12.3981       143800       1.35406
12.4067       143900       1.35337
12.4153       144000       1.35268
12.4239       144100       1.35199
12.4325       144200       1.35131
12.4412       144300       1.35062
12.4498       144400       1.34994
12.4584       144500       1.34926
12.467       144600       1.34857
12.4757       144700       1.34789
12.4843       144800       1.34721
12.4929       144900       1.34653
12.5015       145000       1.34585
12.5101       145100       1.34517
12.5188       145200       1.3445
12.5274       145300       1.34382
12.536       145400       1.34314
12.5446       145500       1.34247
12.5533       145600       1.3418
12.5619       145700       1.34112
12.5705       145800       1.34045
12.5791       145900       1.33978
12.5877       146000       1.33911
12.5964       146100       1.33844
12.605       146200       1.33777
12.6136       146300       1.3371
12.6222       146400       1.33643
12.6308       146500       1.33577
12.6395       146600       1.3351
12.6481       146700       1.33444
12.6567       146800       1.33377
12.6653       146900       1.33311
12.674       147000       1.33245
12.6826       147100       1.33178
12.6912       147200       1.33112
12.6998       147300       1.33046
12.7084       147400       1.3298
12.7171       147500       1.32915
12.7257       147600       1.32849
12.7343       147700       1.32783
12.7429       147800       1.32717
12.7516       147900       1.32652
12.7602       148000       1.32586
12.7688       148100       1.32521
12.7774       148200       1.32456
12.786       148300       1.3239
12.7947       148400       1.32325
12.8033       148500       1.3226
12.8119       148600       1.32195
12.8205       148700       1.3213
12.8291       148800       1.32065
12.8378       148900       1.32001
12.8464       149000       1.31936
12.855       149100       1.31871
12.8636       149200       1.31807
12.8723       149300       1.31742
12.8809       149400       1.31678
12.8895       149500       1.31614
12.8981       149600       1.3155
12.9067       149700       1.31485
12.9154       149800       1.31421
12.924       149900       1.31357
12.9326       150000       1.31293
12.9412       150100       1.3123
12.9499       150200       1.31166
12.9585       150300       1.31102
12.9671       150400       1.31038
12.9757       150500       1.30975
12.9843       150600       1.30911
12.993       150700       1.30848
13.0016       150800       1.30785
13.0102       150900       1.30721
13.0188       151000       1.30658
13.0274       151100       1.30595
13.0361       151200       1.30532
13.0447       151300       1.30469
13.0533       151400       1.30406
13.0619       151500       1.30344
13.0706       151600       1.30281
13.0792       151700       1.30218
13.0878       151800       1.30156
13.0964       151900       1.30093
13.105       152000       1.30031
13.1137       152100       1.29968
13.1223       152200       1.29906
13.1309       152300       1.29844
13.1395       152400       1.29782
13.1482       152500       1.2972
13.1568       152600       1.29658
13.1654       152700       1.29596
13.174       152800       1.29534
13.1826       152900       1.29472
13.1913       153000       1.2941
13.1999       153100       1.29349
13.2085       153200       1.29287
13.2171       153300       1.29226
13.2257       153400       1.29164
13.2344       153500       1.29103
13.243       153600       1.29041
13.2516       153700       1.2898
13.2602       153800       1.28919
13.2689       153900       1.28858
13.2775       154000       1.28797
13.2861       154100       1.28736
13.2947       154200       1.28675
13.3033       154300       1.28614
13.312       154400       1.28554
13.3206       154500       1.28493
13.3292       154600       1.28432
13.3378       154700       1.28372
13.3465       154800       1.28311
13.3551       154900       1.28251
13.3637       155000       1.28191
13.3723       155100       1.28131
13.3809       155200       1.2807
13.3896       155300       1.2801
13.3982       155400       1.2795
13.4068       155500       1.2789
13.4154       155600       1.2783
13.424       155700       1.27771
13.4327       155800       1.27711
13.4413       155900       1.27651
13.4499       156000       1.27591
13.4585       156100       1.27532
13.4672       156200       1.27472
13.4758       156300       1.27413
13.4844       156400       1.27354
13.493       156500       1.27294
13.5016       156600       1.27235
13.5103       156700       1.27176
13.5189       156800       1.27117
13.5275       156900       1.27058
13.5361       157000       1.26999
13.5448       157100       1.2694
13.5534       157200       1.26881
13.562       157300       1.26822
13.5706       157400       1.26764
13.5792       157500       1.26705
13.5879       157600       1.26647
13.5965       157700       1.26588
13.6051       157800       1.2653
13.6137       157900       1.26471
13.6223       158000       1.26413
13.631       158100       1.26355
13.6396       158200       1.26297
13.6482       158300       1.26239
13.6568       158400       1.2618
13.6655       158500       1.26123
13.6741       158600       1.26065
13.6827       158700       1.26007
13.6913       158800       1.25949
13.6999       158900       1.25891
13.7086       159000       1.25834
13.7172       159100       1.25776
13.7258       159200       1.25719
13.7344       159300       1.25661
13.7431       159400       1.25604
13.7517       159500       1.25546
13.7603       159600       1.25489
13.7689       159700       1.25432
13.7775       159800       1.25375
13.7862       159900       1.25318
13.7948       160000       1.25261
13.8034       160100       1.25204
13.812       160200       1.25147
13.8206       160300       1.2509
13.8293       160400       1.25033
13.8379       160500       1.24977
13.8465       160600       1.2492
13.8551       160700       1.24863
13.8638       160800       1.24807
13.8724       160900       1.2475
13.881       161000       1.24694
13.8896       161100       1.24638
13.8982       161200       1.24581
13.9069       161300       1.24525
13.9155       161400       1.24469
13.9241       161500       1.24413
13.9327       161600       1.24357
13.9414       161700       1.24301
13.95       161800       1.24245
13.9586       161900       1.24189
13.9672       162000       1.24134
13.9758       162100       1.24078
13.9845       162200       1.24022
13.9931       162300       1.23967
14.0017       162400       1.23911
14.0103       162500       1.23856
14.0189       162600       1.238
14.0276       162700       1.23745
14.0362       162800       1.2369
14.0448       162900       1.23634
14.0534       163000       1.23579
14.0621       163100       1.23524
14.0707       163200       1.23469
14.0793       163300       1.23414
14.0879       163400       1.23359
14.0965       163500       1.23304
14.1052       163600       1.23249
14.1138       163700       1.23195
14.1224       163800       1.2314
14.131       163900       1.23085
14.1397       164000       1.23031
14.1483       164100       1.22976
14.1569       164200       1.22922
14.1655       164300       1.22867
14.1741       164400       1.22813
14.1828       164500       1.22759
14.1914       164600       1.22705
14.2       164700       1.2265
14.2086       164800       1.22596
14.2172       164900       1.22542
14.2259       165000       1.22488
14.2345       165100       1.22434
14.2431       165200       1.2238
14.2517       165300       1.22327
14.2604       165400       1.22273
14.269       165500       1.22219
14.2776       165600       1.22166
14.2862       165700       1.22112
14.2948       165800       1.22058
14.3035       165900       1.22005
14.3121       166000       1.21951
14.3207       166100       1.21898
14.3293       166200       1.21845
14.338       166300       1.21792
14.3466       166400       1.21738
14.3552       166500       1.21685
14.3638       166600       1.21632
14.3724       166700       1.21579
14.3811       166800       1.21526
14.3897       166900       1.21473
14.3983       167000       1.2142
14.4069       167100       1.21368
14.4155       167200       1.21315
14.4242       167300       1.21262
14.4328       167400       1.2121
14.4414       167500       1.21157
14.45       167600       1.21104
14.4587       167700       1.21052
14.4673       167800       1.21
14.4759       167900       1.20947
14.4845       168000       1.20895
14.4931       168100       1.20843
14.5018       168200       1.20791
14.5104       168300       1.20738
14.519       168400       1.20686
14.5276       168500       1.20634
14.5363       168600       1.20582
14.5449       168700       1.2053
14.5535       168800       1.20479
14.5621       168900       1.20427
14.5707       169000       1.20375
14.5794       169100       1.20323
14.588       169200       1.20272
14.5966       169300       1.2022
14.6052       169400       1.20168
14.6138       169500       1.20117
14.6225       169600       1.20066
14.6311       169700       1.20014
14.6397       169800       1.19963
14.6483       169900       1.19912
14.657       170000       1.1986
14.6656       170100       1.19809
14.6742       170200       1.19758
14.6828       170300       1.19707
14.6914       170400       1.19656
14.7001       170500       1.19605
14.7087       170600       1.19554
14.7173       170700       1.19503
14.7259       170800       1.19453
14.7346       170900       1.19402
14.7432       171000       1.19351
14.7518       171100       1.193
14.7604       171200       1.1925
14.769       171300       1.19199
14.7777       171400       1.19149
14.7863       171500       1.19098
14.7949       171600       1.19048
14.8035       171700       1.18998
14.8121       171800       1.18947
14.8208       171900       1.18897
14.8294       172000       1.18847
14.838       172100       1.18797
14.8466       172200       1.18747
14.8553       172300       1.18697
14.8639       172400       1.18647
14.8725       172500       1.18597
14.8811       172600       1.18547
14.8897       172700       1.18497
14.8984       172800       1.18448
14.907       172900       1.18398
14.9156       173000       1.18348
14.9242       173100       1.18299
14.9329       173200       1.18249
14.9415       173300       1.18199
14.9501       173400       1.1815
14.9587       173500       1.18101
14.9673       173600       1.18051
14.976       173700       1.18002
14.9846       173800       1.17953
14.9932       173900       1.17903
15.0018       174000       1.17854
15.0104       174100       1.17805
15.0191       174200       1.17756
15.0277       174300       1.17707
15.0363       174400       1.17658
15.0449       174500       1.17609
15.0536       174600       1.1756
15.0622       174700       1.17512
15.0708       174800       1.17463
15.0794       174900       1.17414
15.088       175000       1.17365
15.0967       175100       1.17317
15.1053       175200       1.17268
15.1139       175300       1.1722
15.1225       175400       1.17171
15.1312       175500       1.17123
15.1398       175600       1.17074
15.1484       175700       1.17026
15.157       175800       1.16978
15.1656       175900       1.1693
15.1743       176000       1.16881
15.1829       176100       1.16833
15.1915       176200       1.16785
15.2001       176300       1.16737
15.2087       176400       1.16689
15.2174       176500       1.16641
15.226       176600       1.16593
15.2346       176700       1.16546
15.2432       176800       1.16498
15.2519       176900       1.1645
15.2605       177000       1.16402
15.2691       177100       1.16355
15.2777       177200       1.16307
15.2863       177300       1.16259
15.295       177400       1.16212
15.3036       177500       1.16165
15.3122       177600       1.16117
15.3208       177700       1.1607
15.3295       177800       1.16022
15.3381       177900       1.15975
15.3467       178000       1.15928
15.3553       178100       1.15881
15.3639       178200       1.15834
15.3726       178300       1.15786
15.3812       178400       1.15739
15.3898       178500       1.15692
15.3984       178600       1.15645
15.407       178700       1.15599
15.4157       178800       1.15552
15.4243       178900       1.15505
15.4329       179000       1.15458
15.4415       179100       1.15411
15.4502       179200       1.15365
15.4588       179300       1.15318
15.4674       179400       1.15272
15.476       179500       1.15225
15.4846       179600       1.15179
15.4933       179700       1.15132
15.5019       179800       1.15086
15.5105       179900       1.15039
15.5191       180000       1.14993
15.5278       180100       1.14947
15.5364       180200       1.14901
15.545       180300       1.14854
15.5536       180400       1.14808
15.5622       180500       1.14762
15.5709       180600       1.14716
15.5795       180700       1.1467
15.5881       180800       1.14624
15.5967       180900       1.14578
15.6053       181000       1.14532
15.614       181100       1.14487
15.6226       181200       1.14441
15.6312       181300       1.14395
15.6398       181400       1.14349
15.6485       181500       1.14304
15.6571       181600       1.14258
15.6657       181700       1.14213
15.6743       181800       1.14167
15.6829       181900       1.14122
15.6916       182000       1.14076
15.7002       182100       1.14031
15.7088       182200       1.13985
15.7174       182300       1.1394
15.7261       182400       1.13895
15.7347       182500       1.1385
15.7433       182600       1.13805
15.7519       182700       1.1376
15.7605       182800       1.13714
15.7692       182900       1.13669
15.7778       183000       1.13624
15.7864       183100       1.13579
15.795       183200       1.13535
15.8036       183300       1.1349
15.8123       183400       1.13445
15.8209       183500       1.134
15.8295       183600       1.13355
15.8381       183700       1.13311
15.8468       183800       1.13266
15.8554       183900       1.13222
15.864       184000       1.13177
15.8726       184100       1.13132
15.8812       184200       1.13088
15.8899       184300       1.13044
15.8985       184400       1.12999
15.9071       184500       1.12955
15.9157       184600       1.12911
15.9244       184700       1.12866
15.933       184800       1.12822
15.9416       184900       1.12778
15.9502       185000       1.12734
15.9588       185100       1.1269
15.9675       185200       1.12646
15.9761       185300       1.12602
15.9847       185400       1.12558
15.9933       185500       1.12514
16.0019       185600       1.1247
16.0106       185700       1.12426
16.0192       185800       1.12382
16.0278       185900       1.12338
16.0364       186000       1.12295
16.0451       186100       1.12251
16.0537       186200       1.12207
16.0623       186300       1.12164
16.0709       186400       1.1212
16.0795       186500       1.12077
16.0882       186600       1.12033
16.0968       186700       1.1199
16.1054       186800       1.11946
16.114       186900       1.11903
16.1227       187000       1.1186
16.1313       187100       1.11817
16.1399       187200       1.11773
16.1485       187300       1.1173
16.1571       187400       1.11687
16.1658       187500       1.11644
16.1744       187600       1.11601
16.183       187700       1.11558
16.1916       187800       1.11515
16.2002       187900       1.11472
16.2089       188000       1.11429
16.2175       188100       1.11386
16.2261       188200       1.11343
16.2347       188300       1.11301
16.2434       188400       1.11258
16.252       188500       1.11215
16.2606       188600       1.11172
16.2692       188700       1.1113
16.2778       188800       1.11087
16.2865       188900       1.11045
16.2951       189000       1.11002
16.3037       189100       1.1096
16.3123       189200       1.10917
16.321       189300       1.10875
16.3296       189400       1.10833
16.3382       189500       1.1079
16.3468       189600       1.10748
16.3554       189700       1.10706
16.3641       189800       1.10664
16.3727       189900       1.10621
16.3813       190000       1.10579
16.3899       190100       1.10537
16.3985       190200       1.10495
16.4072       190300       1.10453
16.4158       190400       1.10411
16.4244       190500       1.10369
16.433       190600       1.10327
16.4417       190700       1.10286
16.4503       190800       1.10244
16.4589       190900       1.10202
16.4675       191000       1.1016
16.4761       191100       1.10119
16.4848       191200       1.10077
16.4934       191300       1.10035
16.502       191400       1.09994
16.5106       191500       1.09952
16.5193       191600       1.09911
16.5279       191700       1.09869
16.5365       191800       1.09828
16.5451       191900       1.09787
16.5537       192000       1.09745
16.5624       192100       1.09704
16.571       192200       1.09663
16.5796       192300       1.09621
16.5882       192400       1.0958
16.5968       192500       1.09539
16.6055       192600       1.09498
16.6141       192700       1.09457
16.6227       192800       1.09416
16.6313       192900       1.09375
16.64       193000       1.09334
16.6486       193100       1.09293
16.6572       193200       1.09252
16.6658       193300       1.09211
16.6744       193400       1.0917
16.6831       193500       1.0913
16.6917       193600       1.09089
16.7003       193700       1.09048
16.7089       193800       1.09007
16.7175       193900       1.08967
16.7262       194000       1.08926
16.7348       194100       1.08886
16.7434       194200       1.08845
16.752       194300       1.08805
16.7607       194400       1.08764
16.7693       194500       1.08724
16.7779       194600       1.08683
16.7865       194700       1.08643
16.7951       194800       1.08603
16.8038       194900       1.08562
16.8124       195000       1.08522
16.821       195100       1.08482
16.8296       195200       1.08442
16.8383       195300       1.08402
16.8469       195400       1.08362
16.8555       195500       1.08322
16.8641       195600       1.08282
16.8727       195700       1.08242
16.8814       195800       1.08202
16.89       195900       1.08162
16.8986       196000       1.08122
16.9072       196100       1.08082
16.9158       196200       1.08042
16.9245       196300       1.08002
16.9331       196400       1.07963
16.9417       196500       1.07923
16.9503       196600       1.07883
16.959       196700       1.07844
16.9676       196800       1.07804
16.9762       196900       1.07765
16.9848       197000       1.07725
16.9934       197100       1.07686
17.0021       197200       1.07646
17.0107       197300       1.07607
17.0193       197400       1.07567
17.0279       197500       1.07528
17.0366       197600       1.07489
17.0452       197700       1.07449
17.0538       197800       1.0741
17.0624       197900       1.07371
17.071       198000       1.07332
17.0797       198100       1.07293
17.0883       198200       1.07253
17.0969       198300       1.07214
17.1055       198400       1.07175
17.1141       198500       1.07136
17.1228       198600       1.07097
17.1314       198700       1.07058
17.14       198800       1.0702
17.1486       198900       1.06981
17.1573       199000       1.06942
17.1659       199100       1.06903
17.1745       199200       1.06864
17.1831       199300       1.06826
17.1917       199400       1.06787
17.2004       199500       1.06748
17.209       199600       1.0671
17.2176       199700       1.06671
17.2262       199800       1.06633
17.2349       199900       1.06594
17.2435       200000       1.06556
17.2521       200100       1.06517
17.2607       200200       1.06479
17.2693       200300       1.0644
17.278       200400       1.06402
17.2866       200500       1.06364
17.2952       200600       1.06325
17.3038       200700       1.06287
17.3124       200800       1.06249
17.3211       200900       1.06211
17.3297       201000       1.06172
17.3383       201100       1.06134
17.3469       201200       1.06096
17.3556       201300       1.06058
17.3642       201400       1.0602
17.3728       201500       1.05982
17.3814       201600       1.05944
17.39       201700       1.05906
17.3987       201800       1.05868
17.4073       201900       1.05831
17.4159       202000       1.05793
17.4245       202100       1.05755
17.4332       202200       1.05717
17.4418       202300       1.05679
17.4504       202400       1.05642
17.459       202500       1.05604
17.4676       202600       1.05567
17.4763       202700       1.05529
17.4849       202800       1.05491
17.4935       202900       1.05454
17.5021       203000       1.05416
17.5107       203100       1.05379
17.5194       203200       1.05341
17.528       203300       1.05304
17.5366       203400       1.05267
17.5452       203500       1.05229
17.5539       203600       1.05192
17.5625       203700       1.05155
17.5711       203800       1.05118
17.5797       203900       1.0508
17.5883       204000       1.05043
17.597       204100       1.05006
17.6056       204200       1.04969
17.6142       204300       1.04932
17.6228       204400       1.04895
17.6315       204500       1.04858
17.6401       204600       1.04821
17.6487       204700       1.04784
17.6573       204800       1.04747
17.6659       204900       1.0471
17.6746       205000       1.04673
17.6832       205100       1.04636
17.6918       205200       1.04599
17.7004       205300       1.04563
17.709       205400       1.04526
17.7177       205500       1.04489
17.7263       205600       1.04453
17.7349       205700       1.04416
17.7435       205800       1.04379
17.7522       205900       1.04343
17.7608       206000       1.04306
17.7694       206100       1.0427
17.778       206200       1.04233
17.7866       206300       1.04197
17.7953       206400       1.0416
17.8039       206500       1.04124
17.8125       206600       1.04088
17.8211       206700       1.04051
17.8298       206800       1.04015
17.8384       206900       1.03979
17.847       207000       1.03942
17.8556       207100       1.03906
17.8642       207200       1.0387
17.8729       207300       1.03834
17.8815       207400       1.03798
17.8901       207500       1.03762
17.8987       207600       1.03726
17.9073       207700       1.0369
17.916       207800       1.03654
17.9246       207900       1.03618
17.9332       208000       1.03582
17.9418       208100       1.03546
17.9505       208200       1.0351
17.9591       208300       1.03474
17.9677       208400       1.03438
17.9763       208500       1.03403
17.9849       208600       1.03367
17.9936       208700       1.03331
18.0022       208800       1.03295
18.0108       208900       1.0326
18.0194       209000       1.03224
18.0281       209100       1.03189
18.0367       209200       1.03153
18.0453       209300       1.03117
18.0539       209400       1.03082
18.0625       209500       1.03046
18.0712       209600       1.03011
18.0798       209700       1.02976
18.0884       209800       1.0294
18.097       209900       1.02905
18.1056       210000       1.02869
18.1143       210100       1.02834
18.1229       210200       1.02799
18.1315       210300       1.02764
18.1401       210400       1.02728
18.1488       210500       1.02693
18.1574       210600       1.02658
18.166       210700       1.02623
18.1746       210800       1.02588
18.1832       210900       1.02553
18.1919       211000       1.02518
18.2005       211100       1.02483
18.2091       211200       1.02448
18.2177       211300       1.02413
18.2264       211400       1.02378
18.235       211500       1.02343
18.2436       211600       1.02308
18.2522       211700       1.02273
18.2608       211800       1.02238
18.2695       211900       1.02204
18.2781       212000       1.02169
18.2867       212100       1.02134
18.2953       212200       1.02099
18.3039       212300       1.02065
18.3126       212400       1.0203
18.3212       212500       1.01995
18.3298       212600       1.01961
18.3384       212700       1.01926
18.3471       212800       1.01892
18.3557       212900       1.01857
18.3643       213000       1.01823
18.3729       213100       1.01788
18.3815       213200       1.01754
18.3902       213300       1.0172
18.3988       213400       1.01685
18.4074       213500       1.01651
18.416       213600       1.01617
18.4247       213700       1.01582
18.4333       213800       1.01548
18.4419       213900       1.01514
18.4505       214000       1.0148
18.4591       214100       1.01445
18.4678       214200       1.01411
18.4764       214300       1.01377
18.485       214400       1.01343
18.4936       214500       1.01309
18.5022       214600       1.01275
18.5109       214700       1.01241
18.5195       214800       1.01207
18.5281       214900       1.01173
18.5367       215000       1.01139
18.5454       215100       1.01105
18.554       215200       1.01072
18.5626       215300       1.01038
18.5712       215400       1.01004
18.5798       215500       1.0097
18.5885       215600       1.00936
18.5971       215700       1.00903
18.6057       215800       1.00869
18.6143       215900       1.00835
18.623       216000       1.00802
18.6316       216100       1.00768
18.6402       216200       1.00734
18.6488       216300       1.00701
18.6574       216400       1.00667
18.6661       216500       1.00634
18.6747       216600       1.006
18.6833       216700       1.00567
18.6919       216800       1.00534
18.7005       216900       1.005
18.7092       217000       1.00467
18.7178       217100       1.00433
18.7264       217200       1.004
18.735       217300       1.00367
18.7437       217400       1.00334
18.7523       217500       1.003
18.7609       217600       1.00267
18.7695       217700       1.00234
18.7781       217800       1.00201
18.7868       217900       1.00168
18.7954       218000       1.00135
18.804       218100       1.00101
18.8126       218200       1.00068
18.8213       218300       1.00035
18.8299       218400       1.00002
18.8385       218500       0.999694
18.8471       218600       0.999365
18.8557       218700       0.999036
18.8644       218800       0.998707
18.873       218900       0.998378
18.8816       219000       0.99805
18.8902       219100       0.997722
18.8988       219200       0.997394
18.9075       219300       0.997066
18.9161       219400       0.996739
18.9247       219500       0.996412
18.9333       219600       0.996085
18.942       219700       0.995758
18.9506       219800       0.995432
18.9592       219900       0.995106
18.9678       220000       0.99478
18.9764       220100       0.994455
18.9851       220200       0.99413
18.9937       220300       0.993805
19.0023       220400       0.99348
19.0109       220500       0.993155
19.0196       220600       0.992831
19.0282       220700       0.992507
19.0368       220800       0.992183
19.0454       220900       0.99186
19.054       221000       0.991537
19.0627       221100       0.991214
19.0713       221200       0.990891
19.0799       221300       0.990569
19.0885       221400       0.990246
19.0971       221500       0.989925
19.1058       221600       0.989603
19.1144       221700       0.989281
19.123       221800       0.98896
19.1316       221900       0.988639
19.1403       222000       0.988319
19.1489       222100       0.987998
19.1575       222200       0.987678
19.1661       222300       0.987358
19.1747       222400       0.987039
19.1834       222500       0.986719
19.192       222600       0.9864
19.2006       222700       0.986081
19.2092       222800       0.985762
19.2179       222900       0.985444
19.2265       223000       0.985126
19.2351       223100       0.984808
19.2437       223200       0.98449
19.2523       223300       0.984173
19.261       223400       0.983856
19.2696       223500       0.983539
19.2782       223600       0.983222
19.2868       223700       0.982906
19.2954       223800       0.982589
19.3041       223900       0.982273
19.3127       224000       0.981958
19.3213       224100       0.981642
19.3299       224200       0.981327
19.3386       224300       0.981012
19.3472       224400       0.980698
19.3558       224500       0.980383
19.3644       224600       0.980069
19.373       224700       0.979755
19.3817       224800       0.979441
19.3903       224900       0.979128
19.3989       225000       0.978814
19.4075       225100       0.978501
19.4162       225200       0.978189
19.4248       225300       0.977876
19.4334       225400       0.977564
19.442       225500       0.977252
19.4506       225600       0.97694
19.4593       225700       0.976628
19.4679       225800       0.976317
19.4765       225900       0.976006
19.4851       226000       0.975695
19.4937       226100       0.975385
19.5024       226200       0.975074
19.511       226300       0.974764
19.5196       226400       0.974454
19.5282       226500       0.974145
19.5369       226600       0.973835
19.5455       226700       0.973526
19.5541       226800       0.973217
19.5627       226900       0.972909
19.5713       227000       0.9726
19.58       227100       0.972292
19.5886       227200       0.971984
19.5972       227300       0.971676
19.6058       227400       0.971369
19.6145       227500       0.971061
19.6231       227600       0.970754
19.6317       227700       0.970448
19.6403       227800       0.970141
19.6489       227900       0.969835
19.6576       228000       0.969529
19.6662       228100       0.969223
19.6748       228200       0.968917
19.6834       228300       0.968612
19.692       228400       0.968307
19.7007       228500       0.968002
19.7093       228600       0.967697
19.7179       228700       0.967393
19.7265       228800       0.967088
19.7352       228900       0.966784
19.7438       229000       0.966481
19.7524       229100       0.966177
19.761       229200       0.965874
19.7696       229300       0.965571
19.7783       229400       0.965268
19.7869       229500       0.964965
19.7955       229600       0.964663
19.8041       229700       0.964361
19.8128       229800       0.964059
19.8214       229900       0.963757
19.83       230000       0.963456
19.8386       230100       0.963154
19.8472       230200       0.962853
19.8559       230300       0.962553
19.8645       230400       0.962252
19.8731       230500       0.961952
19.8817       230600       0.961652
19.8903       230700       0.961352
19.899       230800       0.961052
19.9076       230900       0.960753
19.9162       231000       0.960454
19.9248       231100       0.960155
19.9335       231200       0.959856
19.9421       231300       0.959557
19.9507       231400       0.959259
19.9593       231500       0.958961
19.9679       231600       0.958663
19.9766       231700       0.958366
19.9852       231800       0.958068
19.9938       231900       0.957771
20.0024       232000       0.957474
20.0111       232100       0.957177
20.0197       232200       0.956881
20.0283       232300       0.956585
20.0369       232400       0.956288
20.0455       232500       0.955993
20.0542       232600       0.955697
20.0628       232700       0.955402
20.0714       232800       0.955106
20.08       232900       0.954812
20.0886       233000       0.954517
20.0973       233100       0.954222
20.1059       233200       0.953928
20.1145       233300       0.953634
20.1231       233400       0.95334
20.1318       233500       0.953046
20.1404       233600       0.952753
20.149       233700       0.95246
20.1576       233800       0.952167
20.1662       233900       0.951874
20.1749       234000       0.951582
20.1835       234100       0.951289
20.1921       234200       0.950997
20.2007       234300       0.950705
20.2094       234400       0.950414
20.218       234500       0.950122
20.2266       234600       0.949831
20.2352       234700       0.94954
20.2438       234800       0.949249
20.2525       234900       0.948959
20.2611       235000       0.948668
20.2697       235100       0.948378
20.2783       235200       0.948088
20.2869       235300       0.947798
20.2956       235400       0.947509
20.3042       235500       0.94722
20.3128       235600       0.94693
20.3214       235700       0.946642
20.3301       235800       0.946353
20.3387       235900       0.946064
20.3473       236000       0.945776
20.3559       236100       0.945488
20.3645       236200       0.9452
20.3732       236300       0.944913
20.3818       236400       0.944625
20.3904       236500       0.944338
20.399       236600       0.944051
20.4077       236700       0.943765
20.4163       236800       0.943478
20.4249       236900       0.943192
20.4335       237000       0.942906
20.4421       237100       0.94262
20.4508       237200       0.942334
20.4594       237300       0.942049
20.468       237400       0.941763
20.4766       237500       0.941478
20.4852       237600       0.941193
20.4939       237700       0.940909
20.5025       237800       0.940624
20.5111       237900       0.94034
20.5197       238000       0.940056
20.5284       238100       0.939772
20.537       238200       0.939489
20.5456       238300       0.939205
20.5542       238400       0.938922
20.5628       238500       0.938639
20.5715       238600       0.938356
20.5801       238700       0.938074
20.5887       238800       0.937791
20.5973       238900       0.937509
20.606       239000       0.937227
20.6146       239100       0.936945
20.6232       239200       0.936664
20.6318       239300       0.936383
20.6404       239400       0.936101
20.6491       239500       0.93582
20.6577       239600       0.93554
20.6663       239700       0.935259
20.6749       239800       0.934979
20.6835       239900       0.934699
20.6922       240000       0.934419
20.7008       240100       0.934139
20.7094       240200       0.93386
20.718       240300       0.93358
20.7267       240400       0.933301
20.7353       240500       0.933022
20.7439       240600       0.932744
20.7525       240700       0.932465
20.7611       240800       0.932187
20.7698       240900       0.931909
20.7784       241000       0.931631
20.787       241100       0.931353
20.7956       241200       0.931076
20.8043       241300       0.930798
20.8129       241400       0.930521
20.8215       241500       0.930244
20.8301       241600       0.929968
20.8387       241700       0.929691
20.8474       241800       0.929415
20.856       241900       0.929139
20.8646       242000       0.928863
20.8732       242100       0.928587
20.8818       242200       0.928312
20.8905       242300       0.928036
20.8991       242400       0.927761
20.9077       242500       0.927486
20.9163       242600       0.927212
20.925       242700       0.926937
20.9336       242800       0.926663
20.9422       242900       0.926389
20.9508       243000       0.926115
20.9594       243100       0.925841
20.9681       243200       0.925568
20.9767       243300       0.925294
20.9853       243400       0.925021
20.9939       243500       0.924748
21.0026       243600       0.924475
21.0112       243700       0.924203
21.0198       243800       0.923931
21.0284       243900       0.923658
21.037       244000       0.923386
21.0457       244100       0.923115
21.0543       244200       0.922843
21.0629       244300       0.922572
21.0715       244400       0.9223
21.0801       244500       0.922029
21.0888       244600       0.921759
21.0974       244700       0.921488
21.106       244800       0.921218
21.1146       244900       0.920947
21.1233       245000       0.920677
21.1319       245100       0.920407
21.1405       245200       0.920138
21.1491       245300       0.919868
21.1577       245400       0.919599
21.1664       245500       0.91933
21.175       245600       0.919061
21.1836       245700       0.918792
21.1922       245800       0.918524
21.2009       245900       0.918256
21.2095       246000       0.917987
21.2181       246100       0.917719
21.2267       246200       0.917452
21.2353       246300       0.917184
21.244       246400       0.916917
21.2526       246500       0.91665
21.2612       246600       0.916383
21.2698       246700       0.916116
21.2784       246800       0.915849
21.2871       246900       0.915583
21.2957       247000       0.915316
21.3043       247100       0.91505
21.3129       247200       0.914784
21.3216       247300       0.914519
21.3302       247400       0.914253
21.3388       247500       0.913988
21.3474       247600       0.913723
21.356       247700       0.913458
21.3647       247800       0.913193
21.3733       247900       0.912929
21.3819       248000       0.912664
21.3905       248100       0.9124
21.3992       248200       0.912136
21.4078       248300       0.911872
21.4164       248400       0.911609
21.425       248500       0.911345
21.4336       248600       0.911082
21.4423       248700       0.910819
21.4509       248800       0.910556
21.4595       248900       0.910293
21.4681       249000       0.910031
21.4767       249100       0.909768
21.4854       249200       0.909506
21.494       249300       0.909244
21.5026       249400       0.908982
21.5112       249500       0.908721
21.5199       249600       0.908459
21.5285       249700       0.908198
21.5371       249800       0.907937
21.5457       249900       0.907676
21.5543       250000       0.907415
21.563       250100       0.907155
21.5716       250200       0.906894
21.5802       250300       0.906634
21.5888       250400       0.906374
21.5975       250500       0.906114
21.6061       250600       0.905855
21.6147       250700       0.905595
21.6233       250800       0.905336
21.6319       250900       0.905077
21.6406       251000       0.904818
21.6492       251100       0.904559
21.6578       251200       0.904301
21.6664       251300       0.904042
21.675       251400       0.903784
21.6837       251500       0.903526
21.6923       251600       0.903268
21.7009       251700       0.903011
21.7095       251800       0.902753
21.7182       251900       0.902496
21.7268       252000       0.902239
21.7354       252100       0.901982
21.744       252200       0.901725
21.7526       252300       0.901468
21.7613       252400       0.901212
21.7699       252500       0.900956
21.7785       252600       0.9007
21.7871       252700       0.900444
21.7958       252800       0.900188
21.8044       252900       0.899933
21.813       253000       0.899677
21.8216       253100       0.899422
21.8302       253200       0.899167
21.8389       253300       0.898912
21.8475       253400       0.898657
21.8561       253500       0.898403
21.8647       253600       0.898149
21.8733       253700       0.897895
21.882       253800       0.897641
21.8906       253900       0.897387
21.8992       254000       0.897133
21.9078       254100       0.89688
21.9165       254200       0.896626
21.9251       254300       0.896373
21.9337       254400       0.89612
21.9423       254500       0.895868
21.9509       254600       0.895615
21.9596       254700       0.895363
21.9682       254800       0.89511
21.9768       254900       0.894858
21.9854       255000       0.894607
21.9941       255100       0.894355
22.0027       255200       0.894103
22.0113       255300       0.893852
22.0199       255400       0.893601
22.0285       255500       0.89335
22.0372       255600       0.893099
22.0458       255700       0.892848
22.0544       255800       0.892598
22.063       255900       0.892347
22.0716       256000       0.892097
22.0803       256100       0.891847
22.0889       256200       0.891597
22.0975       256300       0.891348
22.1061       256400       0.891098
22.1148       256500       0.890849
22.1234       256600       0.890599
22.132       256700       0.890351
22.1406       256800       0.890102
22.1492       256900       0.889853
22.1579       257000       0.889605
22.1665       257100       0.889356
22.1751       257200       0.889108
22.1837       257300       0.88886
22.1924       257400       0.888612
22.201       257500       0.888365
22.2096       257600       0.888117
22.2182       257700       0.88787
22.2268       257800       0.887623
22.2355       257900       0.887376
22.2441       258000       0.887129
22.2527       258100       0.886882
22.2613       258200       0.886636
22.2699       258300       0.886389
22.2786       258400       0.886143
22.2872       258500       0.885897
22.2958       258600       0.885651
22.3044       258700       0.885406
22.3131       258800       0.88516
22.3217       258900       0.884915
22.3303       259000       0.88467
22.3389       259100       0.884425
22.3475       259200       0.88418
22.3562       259300       0.883935
22.3648       259400       0.883691
22.3734       259500       0.883446
22.382       259600       0.883202
22.3907       259700       0.882958
22.3993       259800       0.882714
22.4079       259900       0.882471
22.4165       260000       0.882227
22.4251       260100       0.881984
22.4338       260200       0.881741
22.4424       260300       0.881497
22.451       260400       0.881255
22.4596       260500       0.881012
22.4682       260600       0.880769
22.4769       260700       0.880527
22.4855       260800       0.880285
22.4941       260900       0.880043
22.5027       261000       0.879801
22.5114       261100       0.879559
22.52       261200       0.879317
22.5286       261300       0.879076
22.5372       261400       0.878835
22.5458       261500       0.878594
22.5545       261600       0.878353
22.5631       261700       0.878112
22.5717       261800       0.877871
22.5803       261900       0.877631
22.589       262000       0.87739
22.5976       262100       0.87715
22.6062       262200       0.87691
22.6148       262300       0.87667
22.6234       262400       0.876431
22.6321       262500       0.876191
22.6407       262600       0.875952
22.6493       262700       0.875713
22.6579       262800       0.875474
22.6665       262900       0.875235
22.6752       263000       0.874996
22.6838       263100       0.874757
22.6924       263200       0.874519
22.701       263300       0.874281
22.7097       263400       0.874043
22.7183       263500       0.873805
22.7269       263600       0.873567
22.7355       263700       0.873329
22.7441       263800       0.873092
22.7528       263900       0.872855
22.7614       264000       0.872617
22.77       264100       0.87238
22.7786       264200       0.872144
22.7873       264300       0.871907
22.7959       264400       0.87167
22.8045       264500       0.871434
22.8131       264600       0.871198
22.8217       264700       0.870962
22.8304       264800       0.870726
22.839       264900       0.87049
22.8476       265000       0.870254
22.8562       265100       0.870019
22.8648       265200       0.869784
22.8735       265300       0.869549
22.8821       265400       0.869314
22.8907       265500       0.869079
22.8993       265600       0.868844
22.908       265700       0.86861
22.9166       265800       0.868375
22.9252       265900       0.868141
22.9338       266000       0.867907
22.9424       266100       0.867673
22.9511       266200       0.867439
22.9597       266300       0.867206
22.9683       266400       0.866972
22.9769       266500       0.866739
22.9856       266600       0.866506
22.9942       266700       0.866273
23.0028       266800       0.86604
23.0114       266900       0.865807
23.02       267000       0.865575
23.0287       267100       0.865342
23.0373       267200       0.86511
23.0459       267300       0.864878
23.0545       267400       0.864646
23.0631       267500       0.864414
23.0718       267600       0.864182
23.0804       267700       0.863951
23.089       267800       0.86372
23.0976       267900       0.863488
23.1063       268000       0.863257
23.1149       268100       0.863026
23.1235       268200       0.862796
23.1321       268300       0.862565
23.1407       268400       0.862335
23.1494       268500       0.862104
23.158       268600       0.861874
23.1666       268700       0.861644
23.1752       268800       0.861414
23.1839       268900       0.861185
23.1925       269000       0.860955
23.2011       269100       0.860726
23.2097       269200       0.860497
23.2183       269300       0.860267
23.227       269400       0.860038
23.2356       269500       0.85981
23.2442       269600       0.859581
23.2528       269700       0.859352
23.2614       269800       0.859124
23.2701       269900       0.858896
23.2787       270000       0.858668
23.2873       270100       0.85844
23.2959       270200       0.858212
23.3046       270300       0.857984
23.3132       270400       0.857757
23.3218       270500       0.85753
23.3304       270600       0.857302
23.339       270700       0.857075
23.3477       270800       0.856848
23.3563       270900       0.856622
23.3649       271000       0.856395
23.3735       271100       0.856169
23.3822       271200       0.855942
23.3908       271300       0.855716
23.3994       271400       0.85549
23.408       271500       0.855264
23.4166       271600       0.855038
23.4253       271700       0.854813
23.4339       271800       0.854587
23.4425       271900       0.854362
23.4511       272000       0.854137
23.4597       272100       0.853912
23.4684       272200       0.853687
23.477       272300       0.853462
23.4856       272400       0.853237
23.4942       272500       0.853013
23.5029       272600       0.852789
23.5115       272700       0.852565
23.5201       272800       0.852341
23.5287       272900       0.852117
23.5373       273000       0.851893
23.546       273100       0.851669
23.5546       273200       0.851446
23.5632       273300       0.851222
23.5718       273400       0.850999
23.5805       273500       0.850776
23.5891       273600       0.850553
23.5977       273700       0.850331
23.6063       273800       0.850108
23.6149       273900       0.849886
23.6236       274000       0.849663
23.6322       274100       0.849441
23.6408       274200       0.849219
23.6494       274300       0.848997
23.658       274400       0.848775
23.6667       274500       0.848554
23.6753       274600       0.848332
23.6839       274700       0.848111
23.6925       274800       0.84789
23.7012       274900       0.847669
23.7098       275000       0.847448
23.7184       275100       0.847227
23.727       275200       0.847006
23.7356       275300       0.846786
23.7443       275400       0.846565
23.7529       275500       0.846345
23.7615       275600       0.846125
23.7701       275700       0.845905
23.7788       275800       0.845685
23.7874       275900       0.845465
23.796       276000       0.845246
23.8046       276100       0.845027
23.8132       276200       0.844807
23.8219       276300       0.844588
23.8305       276400       0.844369
23.8391       276500       0.84415
23.8477       276600       0.843932
23.8563       276700       0.843713
23.865       276800       0.843495
23.8736       276900       0.843276
23.8822       277000       0.843058
23.8908       277100       0.84284
23.8995       277200       0.842622
23.9081       277300       0.842404
23.9167       277400       0.842187
23.9253       277500       0.841969
23.9339       277600       0.841752
23.9426       277700       0.841535
23.9512       277800       0.841318
23.9598       277900       0.841101
23.9684       278000       0.840884
23.9771       278100       0.840667
23.9857       278200       0.840451
23.9943       278300       0.840234
24.0029       278400       0.840018
24.0115       278500       0.839802
24.0202       278600       0.839586
24.0288       278700       0.83937
24.0374       278800       0.839154
24.046       278900       0.838939
24.0546       279000       0.838723
24.0633       279100       0.838508
24.0719       279200       0.838293
24.0805       279300       0.838078
24.0891       279400       0.837863
24.0978       279500       0.837648
24.1064       279600       0.837433
24.115       279700       0.837219
24.1236       279800       0.837004
24.1322       279900       0.83679
24.1409       280000       0.836576
24.1495       280100       0.836362
24.1581       280200       0.836148
24.1667       280300       0.835934
24.1754       280400       0.835721
24.184       280500       0.835507
24.1926       280600       0.835294
24.2012       280700       0.835081
24.2098       280800       0.834868
24.2185       280900       0.834655
24.2271       281000       0.834442
24.2357       281100       0.834229
24.2443       281200       0.834017
24.2529       281300       0.833804
24.2616       281400       0.833592
24.2702       281500       0.83338
24.2788       281600       0.833168
24.2874       281700       0.832956
24.2961       281800       0.832744
24.3047       281900       0.832532
24.3133       282000       0.832321
24.3219       282100       0.83211
24.3305       282200       0.831898
24.3392       282300       0.831687
24.3478       282400       0.831476
24.3564       282500       0.831265
24.365       282600       0.831055
24.3737       282700       0.830844
24.3823       282800       0.830634
24.3909       282900       0.830423
24.3995       283000       0.830213
24.4081       283100       0.830003
24.4168       283200       0.829793
24.4254       283300       0.829583
24.434       283400       0.829373
24.4426       283500       0.829164
24.4512       283600       0.828954
24.4599       283700       0.828745
24.4685       283800       0.828536
24.4771       283900       0.828327
24.4857       284000       0.828118
24.4944       284100       0.827909
24.503       284200       0.827701
24.5116       284300       0.827492
24.5202       284400       0.827284
24.5288       284500       0.827075
24.5375       284600       0.826867
24.5461       284700       0.826659
24.5547       284800       0.826451
24.5633       284900       0.826243
24.572       285000       0.826036
24.5806       285100       0.825828
24.5892       285200       0.825621
24.5978       285300       0.825413
24.6064       285400       0.825206
24.6151       285500       0.824999
24.6237       285600       0.824792
24.6323       285700       0.824586
24.6409       285800       0.824379
24.6495       285900       0.824172
24.6582       286000       0.823966
24.6668       286100       0.82376
24.6754       286200       0.823554
24.684       286300       0.823348
24.6927       286400       0.823142
24.7013       286500       0.822936
24.7099       286600       0.82273
24.7185       286700       0.822525
24.7271       286800       0.822319
24.7358       286900       0.822114
24.7444       287000       0.821909
24.753       287100       0.821704
24.7616       287200       0.821499
24.7703       287300       0.821294
24.7789       287400       0.821089
24.7875       287500       0.820885
24.7961       287600       0.820681
24.8047       287700       0.820476
24.8134       287800       0.820272
24.822       287900       0.820068
24.8306       288000       0.819864
24.8392       288100       0.81966
24.8478       288200       0.819457
24.8565       288300       0.819253
24.8651       288400       0.81905
24.8737       288500       0.818846
24.8823       288600       0.818643
24.891       288700       0.81844
24.8996       288800       0.818237
24.9082       288900       0.818034
24.9168       289000       0.817832
24.9254       289100       0.817629
24.9341       289200       0.817427
24.9427       289300       0.817224
24.9513       289400       0.817022
24.9599       289500       0.81682
24.9686       289600       0.816618
24.9772       289700       0.816416
24.9858       289800       0.816214
24.9944       289900       0.816013
25.003       290000       0.815811
25.0117       290100       0.81561
25.0203       290200       0.815409
25.0289       290300       0.815207
25.0375       290400       0.815006
25.0461       290500       0.814806
25.0548       290600       0.814605
25.0634       290700       0.814404
25.072       290800       0.814204
25.0806       290900       0.814003
25.0893       291000       0.813803
25.0979       291100       0.813603
25.1065       291200       0.813403
25.1151       291300       0.813203
25.1237       291400       0.813003
25.1324       291500       0.812803
25.141       291600       0.812604
25.1496       291700       0.812404
25.1582       291800       0.812205
25.1669       291900       0.812006
25.1755       292000       0.811807
25.1841       292100       0.811608
25.1927       292200       0.811409
25.2013       292300       0.81121
25.21       292400       0.811011
25.2186       292500       0.810813
25.2272       292600       0.810614
25.2358       292700       0.810416
25.2444       292800       0.810218
25.2531       292900       0.81002
25.2617       293000       0.809822
25.2703       293100       0.809624
25.2789       293200       0.809426
25.2876       293300       0.809229
25.2962       293400       0.809031
25.3048       293500       0.808834
25.3134       293600       0.808637
25.322       293700       0.80844
25.3307       293800       0.808243
25.3393       293900       0.808046
25.3479       294000       0.807849
25.3565       294100       0.807652
25.3652       294200       0.807456
25.3738       294300       0.807259
25.3824       294400       0.807063
25.391       294500       0.806867
25.3996       294600       0.806671
25.4083       294700       0.806475
25.4169       294800       0.806279
25.4255       294900       0.806083
25.4341       295000       0.805888
25.4427       295100       0.805692
25.4514       295200       0.805497
25.46       295300       0.805302
25.4686       295400       0.805106
25.4772       295500       0.804911
25.4859       295600       0.804717
25.4945       295700       0.804522
25.5031       295800       0.804327
25.5117       295900       0.804132
25.5203       296000       0.803938
25.529       296100       0.803744
25.5376       296200       0.803549
25.5462       296300       0.803355
25.5548       296400       0.803161
25.5635       296500       0.802967
25.5721       296600       0.802774
25.5807       296700       0.80258
25.5893       296800       0.802386
25.5979       296900       0.802193
25.6066       297000       0.802
25.6152       297100       0.801806
25.6238       297200       0.801613
25.6324       297300       0.80142
25.641       297400       0.801227
25.6497       297500       0.801035
25.6583       297600       0.800842
25.6669       297700       0.800649
25.6755       297800       0.800457
25.6842       297900       0.800265
25.6928       298000       0.800072
25.7014       298100       0.79988
25.71       298200       0.799688
25.7186       298300       0.799496
25.7273       298400       0.799305
25.7359       298500       0.799113
25.7445       298600       0.798921
25.7531       298700       0.79873
25.7618       298800       0.798539
25.7704       298900       0.798347
25.779       299000       0.798156
25.7876       299100       0.797965
25.7962       299200       0.797774
25.8049       299300       0.797584
25.8135       299400       0.797393
25.8221       299500       0.797203
25.8307       299600       0.797012
25.8393       299700       0.796822
25.848       299800       0.796632
25.8566       299900       0.796441
25.8652       300000       0.796251
25.8738       300100       0.796062
25.8825       300200       0.795872
25.8911       300300       0.795682
25.8997       300400       0.795493
25.9083       300500       0.795303
25.9169       300600       0.795114
25.9256       300700       0.794924
25.9342       300800       0.794735
25.9428       300900       0.794546
25.9514       301000       0.794357
25.9601       301100       0.794169
25.9687       301200       0.79398
25.9773       301300       0.793791
25.9859       301400       0.793603
25.9945       301500       0.793415
26.0032       301600       0.793226
26.0118       301700       0.793038
26.0204       301800       0.79285
26.029       301900       0.792662
26.0376       302000       0.792474
26.0463       302100       0.792287
26.0549       302200       0.792099
26.0635       302300       0.791912
26.0721       302400       0.791724
26.0808       302500       0.791537
26.0894       302600       0.79135
26.098       302700       0.791163
26.1066       302800       0.790976
26.1152       302900       0.790789
26.1239       303000       0.790602
26.1325       303100       0.790415
26.1411       303200       0.790229
26.1497       303300       0.790042
26.1584       303400       0.789856
26.167       303500       0.78967
26.1756       303600       0.789484
26.1842       303700       0.789298
26.1928       303800       0.789112
26.2015       303900       0.788926
26.2101       304000       0.78874
26.2187       304100       0.788555
26.2273       304200       0.788369
26.2359       304300       0.788184
26.2446       304400       0.787999
26.2532       304500       0.787813
26.2618       304600       0.787628
26.2704       304700       0.787443
26.2791       304800       0.787259
26.2877       304900       0.787074
26.2963       305000       0.786889
26.3049       305100       0.786705
26.3135       305200       0.78652
26.3222       305300       0.786336
26.3308       305400       0.786152
26.3394       305500       0.785968
26.348       305600       0.785784
26.3567       305700       0.7856
26.3653       305800       0.785416
26.3739       305900       0.785232
26.3825       306000       0.785049
26.3911       306100       0.784865
26.3998       306200       0.784682
26.4084       306300       0.784498
26.417       306400       0.784315
26.4256       306500       0.784132
26.4342       306600       0.783949
26.4429       306700       0.783766
26.4515       306800       0.783584
26.4601       306900       0.783401
26.4687       307000       0.783218
26.4774       307100       0.783036
26.486       307200       0.782854
26.4946       307300       0.782671
26.5032       307400       0.782489
26.5118       307500       0.782307
26.5205       307600       0.782125
26.5291       307700       0.781943
26.5377       307800       0.781762
26.5463       307900       0.78158
26.555       308000       0.781398
26.5636       308100       0.781217
26.5722       308200       0.781036
26.5808       308300       0.780854
26.5894       308400       0.780673
26.5981       308500       0.780492
26.6067       308600       0.780311
26.6153       308700       0.78013
26.6239       308800       0.77995
26.6325       308900       0.779769
26.6412       309000       0.779589
26.6498       309100       0.779408
26.6584       309200       0.779228
26.667       309300       0.779048
26.6757       309400       0.778868
26.6843       309500       0.778688
26.6929       309600       0.778508
26.7015       309700       0.778328
26.7101       309800       0.778148
26.7188       309900       0.777968
26.7274       310000       0.777789
26.736       310100       0.77761
26.7446       310200       0.77743
26.7533       310300       0.777251
26.7619       310400       0.777072
26.7705       310500       0.776893
26.7791       310600       0.776714
26.7877       310700       0.776535
26.7964       310800       0.776356
26.805       310900       0.776178
26.8136       311000       0.775999
26.8222       311100       0.775821
26.8308       311200       0.775643
26.8395       311300       0.775464
26.8481       311400       0.775286
26.8567       311500       0.775108
26.8653       311600       0.77493
26.874       311700       0.774752
26.8826       311800       0.774575
26.8912       311900       0.774397
26.8998       312000       0.77422
26.9084       312100       0.774042
26.9171       312200       0.773865
26.9257       312300       0.773688
26.9343       312400       0.77351
26.9429       312500       0.773333
26.9516       312600       0.773156
26.9602       312700       0.77298
26.9688       312800       0.772803
26.9774       312900       0.772626
26.986       313000       0.77245
26.9947       313100       0.772273
27.0033       313200       0.772097
27.0119       313300       0.771921
27.0205       313400       0.771744
27.0291       313500       0.771568
27.0378       313600       0.771392
27.0464       313700       0.771217
27.055       313800       0.771041
27.0636       313900       0.770865
27.0723       314000       0.77069
27.0809       314100       0.770514
27.0895       314200       0.770339
27.0981       314300       0.770163
27.1067       314400       0.769988
27.1154       314500       0.769813
27.124       314600       0.769638
27.1326       314700       0.769463
27.1412       314800       0.769288
27.1499       314900       0.769114
27.1585       315000       0.768939
27.1671       315100       0.768765
27.1757       315200       0.76859
27.1843       315300       0.768416
27.193       315400       0.768242
27.2016       315500       0.768068
27.2102       315600       0.767893
27.2188       315700       0.76772
27.2274       315800       0.767546
27.2361       315900       0.767372
27.2447       316000       0.767198
27.2533       316100       0.767025
27.2619       316200       0.766851
27.2706       316300       0.766678
27.2792       316400       0.766505
27.2878       316500       0.766331
27.2964       316600       0.766158
27.305       316700       0.765985
27.3137       316800       0.765812
27.3223       316900       0.76564
27.3309       317000       0.765467
27.3395       317100       0.765294
27.3482       317200       0.765122
27.3568       317300       0.764949
27.3654       317400       0.764777
27.374       317500       0.764605
27.3826       317600       0.764433
27.3913       317700       0.764261
27.3999       317800       0.764089
27.4085       317900       0.763917
27.4171       318000       0.763745
27.4257       318100       0.763573
27.4344       318200       0.763402
27.443       318300       0.76323
27.4516       318400       0.763059
27.4602       318500       0.762888
27.4689       318600       0.762716
27.4775       318700       0.762545
27.4861       318800       0.762374
27.4947       318900       0.762203
27.5033       319000       0.762032
27.512       319100       0.761862
27.5206       319200       0.761691
27.5292       319300       0.76152
27.5378       319400       0.76135
27.5465       319500       0.76118
27.5551       319600       0.761009
27.5637       319700       0.760839
27.5723       319800       0.760669
27.5809       319900       0.760499
27.5896       320000       0.760329
27.5982       320100       0.760159
27.6068       320200       0.75999
27.6154       320300       0.75982
27.624       320400       0.75965
27.6327       320500       0.759481
27.6413       320600       0.759311
27.6499       320700       0.759142
27.6585       320800       0.758973
27.6672       320900       0.758804
27.6758       321000       0.758635
27.6844       321100       0.758466
27.693       321200       0.758297
27.7016       321300       0.758128
27.7103       321400       0.75796
27.7189       321500       0.757791
27.7275       321600       0.757623
27.7361       321700       0.757454
27.7448       321800       0.757286
27.7534       321900       0.757118
27.762       322000       0.75695
27.7706       322100       0.756782
27.7792       322200       0.756614
27.7879       322300       0.756446
27.7965       322400       0.756278
27.8051       322500       0.756111
27.8137       322600       0.755943
27.8223       322700       0.755776
27.831       322800       0.755608
27.8396       322900       0.755441
27.8482       323000       0.755274
27.8568       323100       0.755107
27.8655       323200       0.75494
27.8741       323300       0.754773
27.8827       323400       0.754606
27.8913       323500       0.754439
27.8999       323600       0.754273
27.9086       323700       0.754106
27.9172       323800       0.753939
27.9258       323900       0.753773
27.9344       324000       0.753607
27.9431       324100       0.753441
27.9517       324200       0.753274
27.9603       324300       0.753108
27.9689       324400       0.752942
27.9775       324500       0.752777
27.9862       324600       0.752611
27.9948       324700       0.752445
28.0034       324800       0.752279
28.012       324900       0.752114
28.0206       325000       0.751949
28.0293       325100       0.751783
28.0379       325200       0.751618
28.0465       325300       0.751453
28.0551       325400       0.751288
28.0638       325500       0.751123
28.0724       325600       0.750958
28.081       325700       0.750793
28.0896       325800       0.750628
28.0982       325900       0.750464
28.1069       326000       0.750299
28.1155       326100       0.750135
28.1241       326200       0.74997
28.1327       326300       0.749806
28.1414       326400       0.749642
28.15       326500       0.749478
28.1586       326600       0.749314
28.1672       326700       0.74915
28.1758       326800       0.748986
28.1845       326900       0.748822
28.1931       327000       0.748658
28.2017       327100       0.748495
28.2103       327200       0.748331
28.2189       327300       0.748168
28.2276       327400       0.748005
28.2362       327500       0.747841
28.2448       327600       0.747678
28.2534       327700       0.747515
28.2621       327800       0.747352
28.2707       327900       0.747189
28.2793       328000       0.747026
28.2879       328100       0.746864
28.2965       328200       0.746701
28.3052       328300       0.746538
28.3138       328400       0.746376
28.3224       328500       0.746214
28.331       328600       0.746051
28.3397       328700       0.745889
28.3483       328800       0.745727
28.3569       328900       0.745565
28.3655       329000       0.745403
28.3741       329100       0.745241
28.3828       329200       0.745079
28.3914       329300       0.744918
28.4       329400       0.744756
28.4086       329500       0.744594
28.4172       329600       0.744433
28.4259       329700       0.744272
28.4345       329800       0.74411
28.4431       329900       0.743949
28.4517       330000       0.743788
28.4604       330100       0.743627
28.469       330200       0.743466
28.4776       330300       0.743305
28.4862       330400       0.743144
28.4948       330500       0.742984
28.5035       330600       0.742823
28.5121       330700       0.742663
28.5207       330800       0.742502
28.5293       330900       0.742342
28.538       331000       0.742181
28.5466       331100       0.742021
28.5552       331200       0.741861
28.5638       331300       0.741701
28.5724       331400       0.741541
28.5811       331500       0.741381
28.5897       331600       0.741222
28.5983       331700       0.741062
28.6069       331800       0.740902
28.6155       331900       0.740743
28.6242       332000       0.740583
28.6328       332100       0.740424
28.6414       332200       0.740265
28.65       332300       0.740105
28.6587       332400       0.739946
28.6673       332500       0.739787
28.6759       332600       0.739628
28.6845       332700       0.73947
28.6931       332800       0.739311
28.7018       332900       0.739152
28.7104       333000       0.738993
28.719       333100       0.738835
28.7276       333200       0.738676
28.7363       333300       0.738518
28.7449       333400       0.73836
28.7535       333500       0.738202
28.7621       333600       0.738043
28.7707       333700       0.737885
28.7794       333800       0.737727
28.788       333900       0.73757
28.7966       334000       0.737412
28.8052       334100       0.737254
28.8138       334200       0.737096
28.8225       334300       0.736939
28.8311       334400       0.736781
28.8397       334500       0.736624
28.8483       334600       0.736467
28.857       334700       0.73631
28.8656       334800       0.736152
28.8742       334900       0.735995
28.8828       335000       0.735838
28.8914       335100       0.735681
28.9001       335200       0.735525
28.9087       335300       0.735368
28.9173       335400       0.735211
28.9259       335500       0.735055
28.9346       335600       0.734898
28.9432       335700       0.734742
28.9518       335800       0.734585
28.9604       335900       0.734429
28.969       336000       0.734273
28.9777       336100       0.734117
28.9863       336200       0.733961
28.9949       336300       0.733805
29.0035       336400       0.733649
29.0121       336500       0.733493
29.0208       336600       0.733338
29.0294       336700       0.733182
29.038       336800       0.733026
29.0466       336900       0.732871
29.0553       337000       0.732716
29.0639       337100       0.73256
29.0725       337200       0.732405
29.0811       337300       0.73225
29.0897       337400       0.732095
29.0984       337500       0.73194
29.107       337600       0.731785
29.1156       337700       0.73163
29.1242       337800       0.731475
29.1329       337900       0.731321
29.1415       338000       0.731166
29.1501       338100       0.731012
29.1587       338200       0.730857
29.1673       338300       0.730703
29.176       338400       0.730549
29.1846       338500       0.730395
29.1932       338600       0.73024
29.2018       338700       0.730086
29.2104       338800       0.729932
29.2191       338900       0.729779
29.2277       339000       0.729625
29.2363       339100       0.729471
29.2449       339200       0.729317
29.2536       339300       0.729164
29.2622       339400       0.72901
29.2708       339500       0.728857
29.2794       339600       0.728704
29.288       339700       0.72855
29.2967       339800       0.728397
29.3053       339900       0.728244
29.3139       340000       0.728091
29.3225       340100       0.727938
29.3312       340200       0.727785
29.3398       340300       0.727633
29.3484       340400       0.72748
29.357       340500       0.727327
29.3656       340600       0.727175
29.3743       340700       0.727022
29.3829       340800       0.72687
29.3915       340900       0.726717
29.4001       341000       0.726565
29.4087       341100       0.726413
29.4174       341200       0.726261
29.426       341300       0.726109
29.4346       341400       0.725957
29.4432       341500       0.725805
29.4519       341600       0.725653
29.4605       341700       0.725502
29.4691       341800       0.72535
29.4777       341900       0.725199
29.4863       342000       0.725047
29.495       342100       0.724896
29.5036       342200       0.724744
29.5122       342300       0.724593
29.5208       342400       0.724442
29.5295       342500       0.724291
29.5381       342600       0.72414
29.5467       342700       0.723989
29.5553       342800       0.723838
29.5639       342900       0.723687
29.5726       343000       0.723537
29.5812       343100       0.723386
29.5898       343200       0.723235
29.5984       343300       0.723085
29.607       343400       0.722934
29.6157       343500       0.722784
29.6243       343600       0.722634
29.6329       343700       0.722484
29.6415       343800       0.722334
29.6502       343900       0.722184
29.6588       344000       0.722034
29.6674       344100       0.721884
29.676       344200       0.721734
29.6846       344300       0.721584
29.6933       344400       0.721435
29.7019       344500       0.721285
29.7105       344600       0.721135
29.7191       344700       0.720986
29.7278       344800       0.720837
29.7364       344900       0.720687
29.745       345000       0.720538
29.7536       345100       0.720389
29.7622       345200       0.72024
29.7709       345300       0.720091
29.7795       345400       0.719942
29.7881       345500       0.719793
29.7967       345600       0.719645
29.8053       345700       0.719496
29.814       345800       0.719347
29.8226       345900       0.719199
29.8312       346000       0.71905
29.8398       346100       0.718902
29.8485       346200       0.718754
29.8571       346300       0.718605
29.8657       346400       0.718457
29.8743       346500       0.718309
29.8829       346600       0.718161
29.8916       346700       0.718013
29.9002       346800       0.717865
29.9088       346900       0.717717
29.9174       347000       0.71757
29.9261       347100       0.717422
29.9347       347200       0.717275
29.9433       347300       0.717127
29.9519       347400       0.71698
29.9605       347500       0.716832
29.9692       347600       0.716685
29.9778       347700       0.716538
29.9864       347800       0.716391
29.995       347900       0.716244
30.0036       348000       0.716097
30.0123       348100       0.71595
30.0209       348200       0.715803
30.0295       348300       0.715656
30.0381       348400       0.715509
30.0468       348500       0.715363
30.0554       348600       0.715216
30.064       348700       0.71507
30.0726       348800       0.714923
30.0812       348900       0.714777
30.0899       349000       0.714631
30.0985       349100       0.714484
30.1071       349200       0.714338
30.1157       349300       0.714192
30.1244       349400       0.714046
30.133       349500       0.7139
30.1416       349600       0.713755
30.1502       349700       0.713609
30.1588       349800       0.713463
30.1675       349900       0.713318
30.1761       350000       0.713172
30.1847       350100       0.713027
30.1933       350200       0.712881
30.2019       350300       0.712736
30.2106       350400       0.712591
30.2192       350500       0.712445
30.2278       350600       0.7123
30.2364       350700       0.712155
30.2451       350800       0.71201
30.2537       350900       0.711865
30.2623       351000       0.711721
30.2709       351100       0.711576
30.2795       351200       0.711431
30.2882       351300       0.711286
30.2968       351400       0.711142
30.3054       351500       0.710997
30.314       351600       0.710853
30.3227       351700       0.710709
30.3313       351800       0.710564
30.3399       351900       0.71042
30.3485       352000       0.710276
30.3571       352100       0.710132
30.3658       352200       0.709988
30.3744       352300       0.709844
30.383       352400       0.7097
30.3916       352500       0.709557
30.4002       352600       0.709413
30.4089       352700       0.709269
30.4175       352800       0.709126
30.4261       352900       0.708982
30.4347       353000       0.708839
30.4434       353100       0.708696
30.452       353200       0.708552
30.4606       353300       0.708409
30.4692       353400       0.708266
30.4778       353500       0.708123
30.4865       353600       0.70798
30.4951       353700       0.707837
30.5037       353800       0.707694
30.5123       353900       0.707551
30.521       354000       0.707409
30.5296       354100       0.707266
30.5382       354200       0.707123
30.5468       354300       0.706981
30.5554       354400       0.706838
30.5641       354500       0.706696
30.5727       354600       0.706554
30.5813       354700       0.706412
30.5899       354800       0.706269
30.5985       354900       0.706127
30.6072       355000       0.705985
30.6158       355100       0.705843
30.6244       355200       0.705701
30.633       355300       0.70556
30.6417       355400       0.705418
30.6503       355500       0.705276
30.6589       355600       0.705135
30.6675       355700       0.704993
30.6761       355800       0.704852
30.6848       355900       0.70471
30.6934       356000       0.704569
30.702       356100       0.704428
30.7106       356200       0.704286
30.7193       356300       0.704145
30.7279       356400       0.704004
30.7365       356500       0.703863
30.7451       356600       0.703722
30.7537       356700       0.703581
30.7624       356800       0.703441
30.771       356900       0.7033
30.7796       357000       0.703159
30.7882       357100       0.703019
30.7968       357200       0.702878
30.8055       357300       0.702738
30.8141       357400       0.702597
30.8227       357500       0.702457
30.8313       357600       0.702317
30.84       357700       0.702177
30.8486       357800       0.702037
30.8572       357900       0.701897
30.8658       358000       0.701757
30.8744       358100       0.701617
30.8831       358200       0.701477
30.8917       358300       0.701337
30.9003       358400       0.701197
30.9089       358500       0.701058
30.9176       358600       0.700918
30.9262       358700       0.700779
30.9348       358800       0.700639
30.9434       358900       0.7005
30.952       359000       0.700361
30.9607       359100       0.700221
30.9693       359200       0.700082
30.9779       359300       0.699943
30.9865       359400       0.699804
30.9951       359500       0.699665
31.0038       359600       0.699526
31.0124       359700       0.699387
31.021       359800       0.699249
31.0296       359900       0.69911
31.0383       360000       0.698971
31.0469       360100       0.698833
31.0555       360200       0.698694
31.0641       360300       0.698556
31.0727       360400       0.698417
31.0814       360500       0.698279
31.09       360600       0.698141
31.0986       360700       0.698003
31.1072       360800       0.697865
31.1159       360900       0.697726
31.1245       361000       0.697589
31.1331       361100       0.697451
31.1417       361200       0.697313
31.1503       361300       0.697175
31.159       361400       0.697037
31.1676       361500       0.6969
31.1762       361600       0.696762
31.1848       361700       0.696625
31.1934       361800       0.696487
31.2021       361900       0.69635
31.2107       362000       0.696212
31.2193       362100       0.696075
31.2279       362200       0.695938
31.2366       362300       0.695801
31.2452       362400       0.695664
31.2538       362500       0.695527
31.2624       362600       0.69539
31.271       362700       0.695253
31.2797       362800       0.695116
31.2883       362900       0.69498
31.2969       363000       0.694843
31.3055       363100       0.694706
31.3142       363200       0.69457
31.3228       363300       0.694433
31.3314       363400       0.694297
31.34       363500       0.694161
31.3486       363600       0.694024
31.3573       363700       0.693888
31.3659       363800       0.693752
31.3745       363900       0.693616
31.3831       364000       0.69348
31.3917       364100       0.693344
31.4004       364200       0.693208
31.409       364300       0.693072
31.4176       364400       0.692936
31.4262       364500       0.692801
31.4349       364600       0.692665
31.4435       364700       0.69253
31.4521       364800       0.692394
31.4607       364900       0.692259
31.4693       365000       0.692123
31.478       365100       0.691988
31.4866       365200       0.691853
31.4952       365300       0.691718
31.5038       365400       0.691582
31.5125       365500       0.691447
31.5211       365600       0.691312
31.5297       365700       0.691177
31.5383       365800       0.691043
31.5469       365900       0.690908
31.5556       366000       0.690773
31.5642       366100       0.690638
31.5728       366200       0.690504
31.5814       366300       0.690369
31.59       366400       0.690235
31.5987       366500       0.6901
31.6073       366600       0.689966
31.6159       366700       0.689832
31.6245       366800       0.689697
31.6332       366900       0.689563
31.6418       367000       0.689429
31.6504       367100       0.689295
31.659       367200       0.689161
31.6676       367300       0.689027
31.6763       367400       0.688893
31.6849       367500       0.68876
31.6935       367600       0.688626
31.7021       367700       0.688492
31.7108       367800       0.688359
31.7194       367900       0.688225
31.728       368000       0.688092
31.7366       368100       0.687958
31.7452       368200       0.687825
31.7539       368300       0.687692
31.7625       368400       0.687558
31.7711       368500       0.687425
31.7797       368600       0.687292
31.7883       368700       0.687159
31.797       368800       0.687026
31.8056       368900       0.686893
31.8142       369000       0.68676
31.8228       369100       0.686628
31.8315       369200       0.686495
31.8401       369300       0.686362
31.8487       369400       0.68623
31.8573       369500       0.686097
31.8659       369600       0.685965
31.8746       369700       0.685832
31.8832       369800       0.6857
31.8918       369900       0.685567
31.9004       370000       0.685435
31.9091       370100       0.685303
31.9177       370200       0.685171
31.9263       370300       0.685039
31.9349       370400       0.684907
31.9435       370500       0.684775
31.9522       370600       0.684643
31.9608       370700       0.684511
31.9694       370800       0.68438
31.978       370900       0.684248
31.9866       371000       0.684116
31.9953       371100       0.683985
32.0039       371200       0.683853
32.0125       371300       0.683722
32.0211       371400       0.68359
32.0298       371500       0.683459
32.0384       371600       0.683328
32.047       371700       0.683197
32.0556       371800       0.683066
32.0642       371900       0.682935
32.0729       372000       0.682804
32.0815       372100       0.682673
32.0901       372200       0.682542
32.0987       372300       0.682411
32.1074       372400       0.68228
32.116       372500       0.682149
32.1246       372600       0.682019
32.1332       372700       0.681888
32.1418       372800       0.681758
32.1505       372900       0.681627
32.1591       373000       0.681497
32.1677       373100       0.681366
32.1763       373200       0.681236
32.1849       373300       0.681106
32.1936       373400       0.680976
32.2022       373500       0.680846
32.2108       373600       0.680716
32.2194       373700       0.680586
32.2281       373800       0.680456
32.2367       373900       0.680326
32.2453       374000       0.680196
32.2539       374100       0.680066
32.2625       374200       0.679937
32.2712       374300       0.679807
32.2798       374400       0.679677
32.2884       374500       0.679548
32.297       374600       0.679419
32.3057       374700       0.679289
32.3143       374800       0.67916
32.3229       374900       0.679031
32.3315       375000       0.678901
32.3401       375100       0.678772
32.3488       375200       0.678643
32.3574       375300       0.678514
32.366       375400       0.678385
32.3746       375500       0.678256
32.3832       375600       0.678127
32.3919       375700       0.677999
32.4005       375800       0.67787
32.4091       375900       0.677741
32.4177       376000       0.677613
32.4264       376100       0.677484
32.435       376200       0.677356
32.4436       376300       0.677227
32.4522       376400       0.677099
32.4608       376500       0.67697
32.4695       376600       0.676842
32.4781       376700       0.676714
32.4867       376800       0.676586
32.4953       376900       0.676458
32.504       377000       0.67633
32.5126       377100       0.676202
32.5212       377200       0.676074
32.5298       377300       0.675946
32.5384       377400       0.675818
32.5471       377500       0.67569
32.5557       377600       0.675563
32.5643       377700       0.675435
32.5729       377800       0.675308
32.5815       377900       0.67518
32.5902       378000       0.675053
32.5988       378100       0.674925
32.6074       378200       0.674798
32.616       378300       0.674671
32.6247       378400       0.674543
32.6333       378500       0.674416
32.6419       378600       0.674289
32.6505       378700       0.674162
32.6591       378800       0.674035
32.6678       378900       0.673908
32.6764       379000       0.673781
32.685       379100       0.673655
32.6936       379200       0.673528
32.7023       379300       0.673401
32.7109       379400       0.673275
32.7195       379500       0.673148
32.7281       379600       0.673021
32.7367       379700       0.672895
32.7454       379800       0.672769
32.754       379900       0.672642
32.7626       380000       0.672516
32.7712       380100       0.67239
32.7798       380200       0.672264
32.7885       380300       0.672137
32.7971       380400       0.672011
32.8057       380500       0.671885
32.8143       380600       0.671759
32.823       380700       0.671634
32.8316       380800       0.671508
32.8402       380900       0.671382
32.8488       381000       0.671256
32.8574       381100       0.671131
32.8661       381200       0.671005
32.8747       381300       0.670879
32.8833       381400       0.670754
32.8919       381500       0.670629
32.9006       381600       0.670503
32.9092       381700       0.670378
32.9178       381800       0.670253
32.9264       381900       0.670127
32.935       382000       0.670002
32.9437       382100       0.669877
32.9523       382200       0.669752
32.9609       382300       0.669627
32.9695       382400       0.669502
32.9781       382500       0.669377
32.9868       382600       0.669253
32.9954       382700       0.669128
33.004       382800       0.669003
33.0126       382900       0.668878
33.0213       383000       0.668754
33.0299       383100       0.668629
33.0385       383200       0.668505
33.0471       383300       0.66838
33.0557       383400       0.668256
33.0644       383500       0.668132
33.073       383600       0.668008
33.0816       383700       0.667883
33.0902       383800       0.667759
33.0989       383900       0.667635
33.1075       384000       0.667511
33.1161       384100       0.667387
33.1247       384200       0.667263
33.1333       384300       0.667139
33.142       384400       0.667016
33.1506       384500       0.666892
33.1592       384600       0.666768
33.1678       384700       0.666644
33.1764       384800       0.666521
33.1851       384900       0.666397
33.1937       385000       0.666274
33.2023       385100       0.66615
33.2109       385200       0.666027
33.2196       385300       0.665904
33.2282       385400       0.665781
33.2368       385500       0.665657
33.2454       385600       0.665534
33.254       385700       0.665411
33.2627       385800       0.665288
33.2713       385900       0.665165
33.2799       386000       0.665042
33.2885       386100       0.664919
33.2972       386200       0.664797
33.3058       386300       0.664674
33.3144       386400       0.664551
33.323       386500       0.664428
33.3316       386600       0.664306
33.3403       386700       0.664183
33.3489       386800       0.664061
33.3575       386900       0.663938
33.3661       387000       0.663816
33.3747       387100       0.663694
33.3834       387200       0.663571
33.392       387300       0.663449
33.4006       387400       0.663327
33.4092       387500       0.663205
33.4179       387600       0.663083
33.4265       387700       0.662961
33.4351       387800       0.662839
33.4437       387900       0.662717
33.4523       388000       0.662595
33.461       388100       0.662474
33.4696       388200       0.662352
33.4782       388300       0.66223
33.4868       388400       0.662109
33.4955       388500       0.661987
33.5041       388600       0.661865
33.5127       388700       0.661744
33.5213       388800       0.661623
33.5299       388900       0.661501
33.5386       389000       0.66138
33.5472       389100       0.661259
33.5558       389200       0.661138
33.5644       389300       0.661016
33.573       389400       0.660895
33.5817       389500       0.660774
33.5903       389600       0.660653
33.5989       389700       0.660532
33.6075       389800       0.660412
33.6162       389900       0.660291
33.6248       390000       0.66017
33.6334       390100       0.660049
33.642       390200       0.659929
33.6506       390300       0.659808
33.6593       390400       0.659688
33.6679       390500       0.659567
33.6765       390600       0.659447
33.6851       390700       0.659326
33.6938       390800       0.659206
33.7024       390900       0.659086
33.711       391000       0.658965
33.7196       391100       0.658845
33.7282       391200       0.658725
33.7369       391300       0.658605
33.7455       391400       0.658485
33.7541       391500       0.658365
33.7627       391600       0.658245
33.7713       391700       0.658125
33.78       391800       0.658006
33.7886       391900       0.657886
33.7972       392000       0.657766
33.8058       392100       0.657646
33.8145       392200       0.657527
33.8231       392300       0.657407
33.8317       392400       0.657288
33.8403       392500       0.657168
33.8489       392600       0.657049
33.8576       392700       0.65693
33.8662       392800       0.65681
33.8748       392900       0.656691
33.8834       393000       0.656572
33.8921       393100       0.656453
33.9007       393200       0.656334
33.9093       393300       0.656215
33.9179       393400       0.656096
33.9265       393500       0.655977
33.9352       393600       0.655858
33.9438       393700       0.655739
33.9524       393800       0.655621
33.961       393900       0.655502
33.9696       394000       0.655383
33.9783       394100       0.655265
33.9869       394200       0.655146
33.9955       394300       0.655028
34.0041       394400       0.654909
34.0128       394500       0.654791
34.0214       394600       0.654672
34.03       394700       0.654554
34.0386       394800       0.654436
34.0472       394900       0.654318
34.0559       395000       0.6542
34.0645       395100       0.654081
34.0731       395200       0.653963
34.0817       395300       0.653845
34.0904       395400       0.653728
34.099       395500       0.65361
34.1076       395600       0.653492
34.1162       395700       0.653374
34.1248       395800       0.653256
34.1335       395900       0.653139
34.1421       396000       0.653021
34.1507       396100       0.652903
34.1593       396200       0.652786
34.1679       396300       0.652668
34.1766       396400       0.652551
34.1852       396500       0.652434
34.1938       396600       0.652316
34.2024       396700       0.652199
34.2111       396800       0.652082
34.2197       396900       0.651965
34.2283       397000       0.651848
34.2369       397100       0.651731
34.2455       397200       0.651614
34.2542       397300       0.651497
34.2628       397400       0.65138
34.2714       397500       0.651263
34.28       397600       0.651146
34.2887       397700       0.651029
34.2973       397800       0.650913
34.3059       397900       0.650796
34.3145       398000       0.650679
34.3231       398100       0.650563
34.3318       398200       0.650446
34.3404       398300       0.65033
34.349       398400       0.650213
34.3576       398500       0.650097
34.3662       398600       0.649981
34.3749       398700       0.649865
34.3835       398800       0.649748
34.3921       398900       0.649632
34.4007       399000       0.649516
34.4094       399100       0.6494
34.418       399200       0.649284
34.4266       399300       0.649168
34.4352       399400       0.649052
34.4438       399500       0.648936
34.4525       399600       0.648821
34.4611       399700       0.648705
34.4697       399800       0.648589
34.4783       399900       0.648474
34.487       400000       0.648358
