; The collision integrals Q_{i,j}^{11} are exponential fit function obtained from 
; Transport properties of high-temperature Jupiter atmosphere components, D. Bruno, C. Catalfamo, M. Capitelli, G. Colonna, O. De Pascale et al., Phys. Plasmas 17, 112315 (2010), doi: 10.1063/1.3495980, Published by the American Institute of Physics
; 
; 
; Bruno et al. (2010) is computing the collision integrals Q11 by considering a polarization model for the potential function, using Eq. (13). In this particular case, the collision integrals assumed a closed form in Eq. (15) where the polarizability values are reported in table II
;
; 1 atomic unit of square distance = 2.80e-17 cm^2
; 1eV = 11604K

2.80e-17


;        E             T             Q11
;       (eV)         (K)         (a.u.)

0.0862174       1000       245.943
0.0948391       1100       234.498
0.103461       1200       224.514
0.112083       1300       215.707
0.120704       1400       207.86
0.129326       1500       200.812
0.137948       1600       194.435
0.14657       1700       188.63
0.155191       1800       183.315
0.163813       1900       178.426
0.172435       2000       173.908
0.181056       2100       169.717
0.189678       2200       165.815
0.1983       2300       162.17
0.206922       2400       158.756
0.215543       2500       155.548
0.224165       2600       152.528
0.232787       2700       149.676
0.241409       2800       146.979
0.25003       2900       144.423
0.258652       3000       141.995
0.267274       3100       139.686
0.275896       3200       137.486
0.284517       3300       135.387
0.293139       3400       133.381
0.301761       3500       131.462
0.310383       3600       129.623
0.319004       3700       127.86
0.327626       3800       126.166
0.336248       3900       124.538
0.34487       4000       122.972
0.353491       4100       121.463
0.362113       4200       120.008
0.370735       4300       118.604
0.379356       4400       117.249
0.387978       4500       115.939
0.3966       4600       114.672
0.405222       4700       113.445
0.413843       4800       112.257
0.422465       4900       111.106
0.431087       5000       109.989
0.439709       5100       108.906
0.44833       5200       107.853
0.456952       5300       106.831
0.465574       5400       105.837
0.474196       5500       104.871
0.482817       5600       103.93
0.491439       5700       103.014
0.500061       5800       102.122
0.508683       5900       101.253
0.517304       6000       100.406
0.525926       6100       99.5795
0.534548       6200       98.7732
0.543169       6300       97.9862
0.551791       6400       97.2176
0.560413       6500       96.4669
0.569035       6600       95.7333
0.577656       6700       95.0162
0.586278       6800       94.3149
0.5949       6900       93.629
0.603522       7000       92.9578
0.612143       7100       92.3009
0.620765       7200       91.6577
0.629387       7300       91.0277
0.638009       7400       90.4106
0.64663       7500       89.8058
0.655252       7600       89.213
0.663874       7700       88.6318
0.672496       7800       88.0618
0.681117       7900       87.5027
0.689739       8000       86.9541
0.698361       8100       86.4157
0.706983       8200       85.8871
0.715604       8300       85.3682
0.724226       8400       84.8585
0.732848       8500       84.3579
0.741469       8600       83.866
0.750091       8700       83.3826
0.758713       8800       82.9075
0.767335       8900       82.4404
0.775956       9000       81.9811
0.784578       9100       81.5294
0.7932       9200       81.0851
0.801822       9300       80.648
0.810443       9400       80.2179
0.819065       9500       79.7945
0.827687       9600       79.3779
0.836309       9700       78.9676
0.84493       9800       78.5637
0.853552       9900       78.1659
0.862174       10000       77.7741
0.870796       10100       77.3881
0.879417       10200       77.0078
0.888039       10300       76.6331
0.896661       10400       76.2638
0.905282       10500       75.8997
0.913904       10600       75.5409
0.922526       10700       75.1871
0.931148       10800       74.8382
0.939769       10900       74.4941
0.948391       11000       74.1547
0.957013       11100       73.8199
0.965635       11200       73.4896
0.974256       11300       73.1637
0.982878       11400       72.8421
0.9915       11500       72.5247
1.00012       11600       72.2114
1.00874       11700       71.9022
1.01737       11800       71.5969
1.02599       11900       71.2954
1.03461       12000       70.9977
1.04323       12100       70.7037
1.05185       12200       70.4134
1.06047       12300       70.1265
1.0691       12400       69.8432
1.07772       12500       69.5633
1.08634       12600       69.2867
1.09496       12700       69.0134
1.10358       12800       68.7432
1.1122       12900       68.4763
1.12083       13000       68.2124
1.12945       13100       67.9515
1.13807       13200       67.6937
1.14669       13300       67.4387
1.15531       13400       67.1866
1.16393       13500       66.9373
1.17256       13600       66.6907
1.18118       13700       66.4469
1.1898       13800       66.2057
1.19842       13900       65.9671
1.20704       14000       65.7311
1.21567       14100       65.4976
1.22429       14200       65.2666
1.23291       14300       65.038
1.24153       14400       64.8117
1.25015       14500       64.5879
1.25877       14600       64.3663
1.2674       14700       64.147
1.27602       14800       63.9299
1.28464       14900       63.715
1.29326       15000       63.5023
1.30188       15100       63.2917
1.3105       15200       63.0831
1.31913       15300       62.8766
1.32775       15400       62.6722
1.33637       15500       62.4697
1.34499       15600       62.2691
1.35361       15700       62.0705
1.36223       15800       61.8737
1.37086       15900       61.6789
1.37948       16000       61.4858
1.3881       16100       61.2946
1.39672       16200       61.1051
1.40534       16300       60.9174
1.41397       16400       60.7314
1.42259       16500       60.5471
1.43121       16600       60.3644
1.43983       16700       60.1834
1.44845       16800       60.004
1.45707       16900       59.8262
1.4657       17000       59.65
1.47432       17100       59.4753
1.48294       17200       59.3022
1.49156       17300       59.1306
1.50018       17400       58.9604
1.5088       17500       58.7917
1.51743       17600       58.6244
1.52605       17700       58.4586
1.53467       17800       58.2942
1.54329       17900       58.1311
1.55191       18000       57.9694
1.56053       18100       57.809
1.56916       18200       57.65
1.57778       18300       57.4923
1.5864       18400       57.3358
1.59502       18500       57.1807
1.60364       18600       57.0267
1.61227       18700       56.8741
1.62089       18800       56.7226
1.62951       18900       56.5723
1.63813       19000       56.4233
1.64675       19100       56.2754
1.65537       19200       56.1286
1.664       19300       55.983
1.67262       19400       55.8385
1.68124       19500       55.6952
1.68986       19600       55.5529
1.69848       19700       55.4117
1.7071       19800       55.2716
1.71573       19900       55.1326
1.72435       20000       54.9946
1.73297       20100       54.8576
1.74159       20200       54.7217
1.75021       20300       54.5867
1.75883       20400       54.4528
1.76746       20500       54.3198
1.77608       20600       54.1878
1.7847       20700       54.0567
1.79332       20800       53.9266
1.80194       20900       53.7975
1.81056       21000       53.6692
1.81919       21100       53.5419
1.82781       21200       53.4155
1.83643       21300       53.2899
1.84505       21400       53.1653
1.85367       21500       53.0415
1.8623       21600       52.9186
1.87092       21700       52.7965
1.87954       21800       52.6753
1.88816       21900       52.5549
1.89678       22000       52.4353
1.9054       22100       52.3165
1.91403       22200       52.1986
1.92265       22300       52.0814
1.93127       22400       51.965
1.93989       22500       51.8494
1.94851       22600       51.7346
1.95713       22700       51.6205
1.96576       22800       51.5072
1.97438       22900       51.3946
1.983       23000       51.2827
1.99162       23100       51.1716
2.00024       23200       51.0612
2.00886       23300       50.9515
2.01749       23400       50.8425
2.02611       23500       50.7342
2.03473       23600       50.6266
2.04335       23700       50.5197
2.05197       23800       50.4135
2.0606       23900       50.3079
2.06922       24000       50.203
2.07784       24100       50.0987
2.08646       24200       49.9951
2.09508       24300       49.8921
2.1037       24400       49.7898
2.11233       24500       49.688
2.12095       24600       49.587
2.12957       24700       49.4865
2.13819       24800       49.3866
2.14681       24900       49.2873
2.15543       25000       49.1887
2.16406       25100       49.0906
2.17268       25200       48.9931
2.1813       25300       48.8962
2.18992       25400       48.7998
2.19854       25500       48.704
2.20716       25600       48.6088
2.21579       25700       48.5141
2.22441       25800       48.42
2.23303       25900       48.3265
2.24165       26000       48.2334
2.25027       26100       48.141
2.2589       26200       48.049
2.26752       26300       47.9576
2.27614       26400       47.8666
2.28476       26500       47.7762
2.29338       26600       47.6864
2.302       26700       47.597
2.31063       26800       47.5081
2.31925       26900       47.4197
2.32787       27000       47.3318
2.33649       27100       47.2444
2.34511       27200       47.1575
2.35373       27300       47.071
2.36236       27400       46.9851
2.37098       27500       46.8995
2.3796       27600       46.8145
2.38822       27700       46.7299
2.39684       27800       46.6458
2.40546       27900       46.5621
2.41409       28000       46.4789
2.42271       28100       46.3961
2.43133       28200       46.3138
2.43995       28300       46.2319
2.44857       28400       46.1504
2.4572       28500       46.0694
2.46582       28600       45.9888
2.47444       28700       45.9086
2.48306       28800       45.8288
2.49168       28900       45.7495
2.5003       29000       45.6705
2.50893       29100       45.592
2.51755       29200       45.5138
2.52617       29300       45.4361
2.53479       29400       45.3588
2.54341       29500       45.2818
2.55203       29600       45.2053
2.56066       29700       45.1291
2.56928       29800       45.0533
2.5779       29900       44.9779
2.58652       30000       44.9029
2.59514       30100       44.8282
2.60376       30200       44.754
2.61239       30300       44.6801
2.62101       30400       44.6065
2.62963       30500       44.5333
2.63825       30600       44.4605
2.64687       30700       44.388
2.6555       30800       44.3159
2.66412       30900       44.2441
2.67274       31000       44.1727
2.68136       31100       44.1016
2.68998       31200       44.0309
2.6986       31300       43.9605
2.70723       31400       43.8905
2.71585       31500       43.8207
2.72447       31600       43.7513
2.73309       31700       43.6823
2.74171       31800       43.6135
2.75033       31900       43.5451
2.75896       32000       43.477
2.76758       32100       43.4093
2.7762       32200       43.3418
2.78482       32300       43.2747
2.79344       32400       43.2078
2.80206       32500       43.1413
2.81069       32600       43.0751
2.81931       32700       43.0092
2.82793       32800       42.9436
2.83655       32900       42.8782
2.84517       33000       42.8132
2.8538       33100       42.7485
2.86242       33200       42.6841
2.87104       33300       42.6199
2.87966       33400       42.5561
2.88828       33500       42.4925
2.8969       33600       42.4292
2.90553       33700       42.3663
2.91415       33800       42.3035
2.92277       33900       42.2411
2.93139       34000       42.1789
2.94001       34100       42.117
2.94863       34200       42.0554
2.95726       34300       41.9941
2.96588       34400       41.933
2.9745       34500       41.8722
2.98312       34600       41.8116
2.99174       34700       41.7513
3.00036       34800       41.6913
3.00899       34900       41.6315
3.01761       35000       41.572
3.02623       35100       41.5127
3.03485       35200       41.4537
3.04347       35300       41.395
3.0521       35400       41.3365
3.06072       35500       41.2782
3.06934       35600       41.2202
3.07796       35700       41.1624
3.08658       35800       41.1049
3.0952       35900       41.0476
3.10383       36000       40.9905
3.11245       36100       40.9337
3.12107       36200       40.8772
3.12969       36300       40.8208
3.13831       36400       40.7647
3.14693       36500       40.7088
3.15556       36600       40.6532
3.16418       36700       40.5977
3.1728       36800       40.5426
3.18142       36900       40.4876
3.19004       37000       40.4328
3.19866       37100       40.3783
3.20729       37200       40.324
3.21591       37300       40.2699
3.22453       37400       40.216
3.23315       37500       40.1624
3.24177       37600       40.1089
3.2504       37700       40.0557
3.25902       37800       40.0027
3.26764       37900       39.9499
3.27626       38000       39.8973
3.28488       38100       39.8449
3.2935       38200       39.7927
3.30213       38300       39.7407
3.31075       38400       39.6889
3.31937       38500       39.6374
3.32799       38600       39.586
3.33661       38700       39.5348
3.34523       38800       39.4838
3.35386       38900       39.433
3.36248       39000       39.3824
3.3711       39100       39.3321
3.37972       39200       39.2819
3.38834       39300       39.2318
3.39696       39400       39.182
3.40559       39500       39.1324
3.41421       39600       39.083
3.42283       39700       39.0337
3.43145       39800       38.9846
3.44007       39900       38.9357
3.4487       40000       38.887
3.45732       40100       38.8385
3.46594       40200       38.7902
3.47456       40300       38.742
3.48318       40400       38.6941
3.4918       40500       38.6463
3.50043       40600       38.5986
3.50905       40700       38.5512
3.51767       40800       38.5039
3.52629       40900       38.4568
3.53491       41000       38.4099
3.54353       41100       38.3631
3.55216       41200       38.3165
3.56078       41300       38.2701
3.5694       41400       38.2239
3.57802       41500       38.1778
3.58664       41600       38.1319
3.59526       41700       38.0861
3.60389       41800       38.0406
3.61251       41900       37.9951
3.62113       42000       37.9499
3.62975       42100       37.9048
3.63837       42200       37.8598
3.647       42300       37.8151
3.65562       42400       37.7704
3.66424       42500       37.726
3.67286       42600       37.6817
3.68148       42700       37.6375
3.6901       42800       37.5935
3.69873       42900       37.5497
3.70735       43000       37.506
3.71597       43100       37.4625
3.72459       43200       37.4191
3.73321       43300       37.3758
3.74183       43400       37.3328
3.75046       43500       37.2898
3.75908       43600       37.247
3.7677       43700       37.2044
3.77632       43800       37.1619
3.78494       43900       37.1196
3.79356       44000       37.0773
3.80219       44100       37.0353
3.81081       44200       36.9934
3.81943       44300       36.9516
3.82805       44400       36.91
3.83667       44500       36.8685
3.8453       44600       36.8271
3.85392       44700       36.7859
3.86254       44800       36.7448
3.87116       44900       36.7039
3.87978       45000       36.6631
3.8884       45100       36.6224
3.89703       45200       36.5819
3.90565       45300       36.5415
3.91427       45400       36.5012
3.92289       45500       36.4611
3.93151       45600       36.4211
3.94013       45700       36.3812
3.94876       45800       36.3414
3.95738       45900       36.3018
3.966       46000       36.2624
3.97462       46100       36.223
3.98324       46200       36.1838
3.99186       46300       36.1447
4.00049       46400       36.1057
4.00911       46500       36.0669
4.01773       46600       36.0282
4.02635       46700       35.9896
4.03497       46800       35.9511
4.0436       46900       35.9127
4.05222       47000       35.8745
4.06084       47100       35.8364
4.06946       47200       35.7984
4.07808       47300       35.7606
4.0867       47400       35.7228
4.09533       47500       35.6852
4.10395       47600       35.6477
4.11257       47700       35.6103
4.12119       47800       35.573
4.12981       47900       35.5359
4.13843       48000       35.4989
4.14706       48100       35.4619
4.15568       48200       35.4251
4.1643       48300       35.3884
4.17292       48400       35.3519
4.18154       48500       35.3154
4.19016       48600       35.279
4.19879       48700       35.2428
4.20741       48800       35.2067
4.21603       48900       35.1707
4.22465       49000       35.1348
4.23327       49100       35.099
4.2419       49200       35.0633
4.25052       49300       35.0277
4.25914       49400       34.9922
4.26776       49500       34.9569
4.27638       49600       34.9216
4.285       49700       34.8865
4.29363       49800       34.8514
4.30225       49900       34.8165
4.31087       50000       34.7816
4.31949       50100       34.7469
4.32811       50200       34.7123
4.33673       50300       34.6778
4.34536       50400       34.6433
4.35398       50500       34.609
4.3626       50600       34.5748
4.37122       50700       34.5407
4.37984       50800       34.5067
4.38846       50900       34.4728
4.39709       51000       34.4389
4.40571       51100       34.4052
4.41433       51200       34.3716
4.42295       51300       34.3381
4.43157       51400       34.3047
4.4402       51500       34.2714
4.44882       51600       34.2381
4.45744       51700       34.205
4.46606       51800       34.172
4.47468       51900       34.139
4.4833       52000       34.1062
4.49193       52100       34.0735
4.50055       52200       34.0408
4.50917       52300       34.0082
4.51779       52400       33.9758
4.52641       52500       33.9434
4.53503       52600       33.9111
4.54366       52700       33.8789
4.55228       52800       33.8468
4.5609       52900       33.8148
4.56952       53000       33.7829
4.57814       53100       33.7511
4.58676       53200       33.7193
4.59539       53300       33.6877
4.60401       53400       33.6561
4.61263       53500       33.6247
4.62125       53600       33.5933
4.62987       53700       33.562
4.6385       53800       33.5308
4.64712       53900       33.4997
4.65574       54000       33.4686
4.66436       54100       33.4377
4.67298       54200       33.4068
4.6816       54300       33.3761
4.69023       54400       33.3454
4.69885       54500       33.3148
4.70747       54600       33.2842
4.71609       54700       33.2538
4.72471       54800       33.2234
4.73333       54900       33.1932
4.74196       55000       33.163
4.75058       55100       33.1329
4.7592       55200       33.1029
4.76782       55300       33.0729
4.77644       55400       33.043
4.78506       55500       33.0133
4.79369       55600       32.9836
4.80231       55700       32.9539
4.81093       55800       32.9244
4.81955       55900       32.8949
4.82817       56000       32.8656
4.8368       56100       32.8362
4.84542       56200       32.807
4.85404       56300       32.7779
4.86266       56400       32.7488
4.87128       56500       32.7198
4.8799       56600       32.6909
4.88853       56700       32.6621
4.89715       56800       32.6333
4.90577       56900       32.6046
4.91439       57000       32.576
4.92301       57100       32.5474
4.93163       57200       32.519
4.94026       57300       32.4906
4.94888       57400       32.4623
4.9575       57500       32.434
4.96612       57600       32.4059
4.97474       57700       32.3778
4.98336       57800       32.3498
4.99199       57900       32.3218
5.00061       58000       32.2939
5.00923       58100       32.2661
5.01785       58200       32.2384
5.02647       58300       32.2107
5.03509       58400       32.1832
5.04372       58500       32.1556
5.05234       58600       32.1282
5.06096       58700       32.1008
5.06958       58800       32.0735
5.0782       58900       32.0463
5.08683       59000       32.0191
5.09545       59100       31.992
5.10407       59200       31.965
5.11269       59300       31.938
5.12131       59400       31.9111
5.12993       59500       31.8843
5.13856       59600       31.8575
5.14718       59700       31.8308
5.1558       59800       31.8042
5.16442       59900       31.7776
5.17304       60000       31.7511
5.18166       60100       31.7247
5.19029       60200       31.6984
5.19891       60300       31.6721
5.20753       60400       31.6458
5.21615       60500       31.6197
5.22477       60600       31.5936
5.23339       60700       31.5675
5.24202       60800       31.5416
5.25064       60900       31.5157
5.25926       61000       31.4898
5.26788       61100       31.464
5.2765       61200       31.4383
5.28513       61300       31.4127
5.29375       61400       31.3871
5.30237       61500       31.3615
5.31099       61600       31.3361
5.31961       61700       31.3107
5.32823       61800       31.2853
5.33686       61900       31.26
5.34548       62000       31.2348
5.3541       62100       31.2097
5.36272       62200       31.1846
5.37134       62300       31.1595
5.37996       62400       31.1346
5.38859       62500       31.1096
5.39721       62600       31.0848
5.40583       62700       31.06
5.41445       62800       31.0352
5.42307       62900       31.0106
5.43169       63000       30.9859
5.44032       63100       30.9614
5.44894       63200       30.9369
5.45756       63300       30.9124
5.46618       63400       30.888
5.4748       63500       30.8637
5.48343       63600       30.8394
5.49205       63700       30.8152
5.50067       63800       30.7911
5.50929       63900       30.767
5.51791       64000       30.7429
5.52653       64100       30.7189
5.53516       64200       30.695
5.54378       64300       30.6711
5.5524       64400       30.6473
5.56102       64500       30.6235
5.56964       64600       30.5998
5.57826       64700       30.5762
5.58689       64800       30.5526
5.59551       64900       30.529
5.60413       65000       30.5055
5.61275       65100       30.4821
5.62137       65200       30.4587
5.62999       65300       30.4354
5.63862       65400       30.4121
5.64724       65500       30.3889
5.65586       65600       30.3657
5.66448       65700       30.3426
5.6731       65800       30.3195
5.68173       65900       30.2965
5.69035       66000       30.2735
5.69897       66100       30.2506
5.70759       66200       30.2278
5.71621       66300       30.205
5.72483       66400       30.1822
5.73346       66500       30.1595
5.74208       66600       30.1369
5.7507       66700       30.1143
5.75932       66800       30.0917
5.76794       66900       30.0692
5.77656       67000       30.0468
5.78519       67100       30.0244
5.79381       67200       30.002
5.80243       67300       29.9797
5.81105       67400       29.9575
5.81967       67500       29.9353
5.82829       67600       29.9131
5.83692       67700       29.891
5.84554       67800       29.869
5.85416       67900       29.847
5.86278       68000       29.825
5.8714       68100       29.8031
5.88003       68200       29.7812
5.88865       68300       29.7594
5.89727       68400       29.7377
5.90589       68500       29.716
5.91451       68600       29.6943
5.92313       68700       29.6727
5.93176       68800       29.6511
5.94038       68900       29.6296
5.949       69000       29.6081
5.95762       69100       29.5867
5.96624       69200       29.5653
5.97486       69300       29.5439
5.98349       69400       29.5226
5.99211       69500       29.5014
6.00073       69600       29.4802
6.00935       69700       29.459
6.01797       69800       29.4379
6.02659       69900       29.4169
6.03522       70000       29.3958
6.04384       70100       29.3749
6.05246       70200       29.3539
6.06108       70300       29.3331
6.0697       70400       29.3122
6.07833       70500       29.2914
6.08695       70600       29.2707
6.09557       70700       29.25
6.10419       70800       29.2293
6.11281       70900       29.2087
6.12143       71000       29.1881
6.13006       71100       29.1676
6.13868       71200       29.1471
6.1473       71300       29.1266
6.15592       71400       29.1062
6.16454       71500       29.0859
6.17316       71600       29.0655
6.18179       71700       29.0453
6.19041       71800       29.025
6.19903       71900       29.0048
6.20765       72000       28.9847
6.21627       72100       28.9646
6.22489       72200       28.9445
6.23352       72300       28.9245
6.24214       72400       28.9045
6.25076       72500       28.8846
6.25938       72600       28.8647
6.268       72700       28.8448
6.27663       72800       28.825
6.28525       72900       28.8052
6.29387       73000       28.7855
6.30249       73100       28.7658
6.31111       73200       28.7461
6.31973       73300       28.7265
6.32836       73400       28.7069
6.33698       73500       28.6874
6.3456       73600       28.6679
6.35422       73700       28.6485
6.36284       73800       28.629
6.37146       73900       28.6097
6.38009       74000       28.5903
6.38871       74100       28.571
6.39733       74200       28.5518
6.40595       74300       28.5325
6.41457       74400       28.5134
6.42319       74500       28.4942
6.43182       74600       28.4751
6.44044       74700       28.4561
6.44906       74800       28.437
6.45768       74900       28.418
6.4663       75000       28.3991
6.47493       75100       28.3802
6.48355       75200       28.3613
6.49217       75300       28.3425
6.50079       75400       28.3237
6.50941       75500       28.3049
6.51803       75600       28.2862
6.52666       75700       28.2675
6.53528       75800       28.2488
6.5439       75900       28.2302
6.55252       76000       28.2116
6.56114       76100       28.1931
6.56976       76200       28.1746
6.57839       76300       28.1561
6.58701       76400       28.1377
6.59563       76500       28.1193
6.60425       76600       28.1009
6.61287       76700       28.0826
6.62149       76800       28.0643
6.63012       76900       28.0461
6.63874       77000       28.0278
6.64736       77100       28.0097
6.65598       77200       27.9915
6.6646       77300       27.9734
6.67323       77400       27.9553
6.68185       77500       27.9373
6.69047       77600       27.9193
6.69909       77700       27.9013
6.70771       77800       27.8834
6.71633       77900       27.8655
6.72496       78000       27.8476
6.73358       78100       27.8298
6.7422       78200       27.812
6.75082       78300       27.7942
6.75944       78400       27.7765
6.76806       78500       27.7588
6.77669       78600       27.7411
6.78531       78700       27.7235
6.79393       78800       27.7059
6.80255       78900       27.6883
6.81117       79000       27.6708
6.81979       79100       27.6533
6.82842       79200       27.6358
6.83704       79300       27.6184
6.84566       79400       27.601
6.85428       79500       27.5836
6.8629       79600       27.5663
6.87153       79700       27.549
6.88015       79800       27.5317
6.88877       79900       27.5145
6.89739       80000       27.4973
6.90601       80100       27.4801
6.91463       80200       27.463
6.92326       80300       27.4459
6.93188       80400       27.4288
6.9405       80500       27.4118
6.94912       80600       27.3948
6.95774       80700       27.3778
6.96636       80800       27.3608
6.97499       80900       27.3439
6.98361       81000       27.327
6.99223       81100       27.3102
7.00085       81200       27.2934
7.00947       81300       27.2766
7.01809       81400       27.2598
7.02672       81500       27.2431
7.03534       81600       27.2264
7.04396       81700       27.2097
7.05258       81800       27.1931
7.0612       81900       27.1765
7.06983       82000       27.1599
7.07845       82100       27.1433
7.08707       82200       27.1268
7.09569       82300       27.1103
7.10431       82400       27.0939
7.11293       82500       27.0775
7.12156       82600       27.0611
7.13018       82700       27.0447
7.1388       82800       27.0284
7.14742       82900       27.0121
7.15604       83000       26.9958
7.16466       83100       26.9795
7.17329       83200       26.9633
7.18191       83300       26.9471
7.19053       83400       26.931
7.19915       83500       26.9148
7.20777       83600       26.8987
7.21639       83700       26.8827
7.22502       83800       26.8666
7.23364       83900       26.8506
7.24226       84000       26.8346
7.25088       84100       26.8187
7.2595       84200       26.8027
7.26813       84300       26.7868
7.27675       84400       26.7709
7.28537       84500       26.7551
7.29399       84600       26.7393
7.30261       84700       26.7235
7.31123       84800       26.7077
7.31986       84900       26.692
7.32848       85000       26.6763
7.3371       85100       26.6606
7.34572       85200       26.645
7.35434       85300       26.6293
7.36296       85400       26.6137
7.37159       85500       26.5982
7.38021       85600       26.5826
7.38883       85700       26.5671
7.39745       85800       26.5516
7.40607       85900       26.5362
7.41469       86000       26.5207
7.42332       86100       26.5053
7.43194       86200       26.49
7.44056       86300       26.4746
7.44918       86400       26.4593
7.4578       86500       26.444
7.46643       86600       26.4287
7.47505       86700       26.4135
7.48367       86800       26.3982
7.49229       86900       26.3831
7.50091       87000       26.3679
7.50953       87100       26.3527
7.51816       87200       26.3376
7.52678       87300       26.3225
7.5354       87400       26.3075
7.54402       87500       26.2924
7.55264       87600       26.2774
7.56126       87700       26.2624
7.56989       87800       26.2475
7.57851       87900       26.2326
7.58713       88000       26.2176
7.59575       88100       26.2028
7.60437       88200       26.1879
7.61299       88300       26.1731
7.62162       88400       26.1583
7.63024       88500       26.1435
7.63886       88600       26.1287
7.64748       88700       26.114
7.6561       88800       26.0993
7.66473       88900       26.0846
7.67335       89000       26.0699
7.68197       89100       26.0553
7.69059       89200       26.0407
7.69921       89300       26.0261
7.70783       89400       26.0115
7.71646       89500       25.997
7.72508       89600       25.9825
7.7337       89700       25.968
7.74232       89800       25.9536
7.75094       89900       25.9391
7.75956       90000       25.9247
7.76819       90100       25.9103
7.77681       90200       25.8959
7.78543       90300       25.8816
7.79405       90400       25.8673
7.80267       90500       25.853
7.81129       90600       25.8387
7.81992       90700       25.8245
7.82854       90800       25.8102
7.83716       90900       25.796
7.84578       91000       25.7819
7.8544       91100       25.7677
7.86303       91200       25.7536
7.87165       91300       25.7395
7.88027       91400       25.7254
7.88889       91500       25.7113
7.89751       91600       25.6973
7.90613       91700       25.6833
7.91476       91800       25.6693
7.92338       91900       25.6553
7.932       92000       25.6414
7.94062       92100       25.6274
7.94924       92200       25.6135
7.95786       92300       25.5997
7.96649       92400       25.5858
7.97511       92500       25.572
7.98373       92600       25.5582
7.99235       92700       25.5444
8.00097       92800       25.5306
8.00959       92900       25.5169
8.01822       93000       25.5031
8.02684       93100       25.4894
8.03546       93200       25.4758
8.04408       93300       25.4621
8.0527       93400       25.4485
8.06133       93500       25.4348
8.06995       93600       25.4213
8.07857       93700       25.4077
8.08719       93800       25.3941
8.09581       93900       25.3806
8.10443       94000       25.3671
8.11306       94100       25.3536
8.12168       94200       25.3402
8.1303       94300       25.3267
8.13892       94400       25.3133
8.14754       94500       25.2999
8.15616       94600       25.2865
8.16479       94700       25.2732
8.17341       94800       25.2599
8.18203       94900       25.2465
8.19065       95000       25.2332
8.19927       95100       25.22
8.20789       95200       25.2067
8.21652       95300       25.1935
8.22514       95400       25.1803
8.23376       95500       25.1671
8.24238       95600       25.1539
8.251       95700       25.1408
8.25963       95800       25.1277
8.26825       95900       25.1146
8.27687       96000       25.1015
8.28549       96100       25.0884
8.29411       96200       25.0754
8.30273       96300       25.0624
8.31136       96400       25.0494
8.31998       96500       25.0364
8.3286       96600       25.0234
8.33722       96700       25.0105
8.34584       96800       24.9975
8.35446       96900       24.9846
8.36309       97000       24.9718
8.37171       97100       24.9589
8.38033       97200       24.9461
8.38895       97300       24.9332
8.39757       97400       24.9204
8.40619       97500       24.9076
8.41482       97600       24.8949
8.42344       97700       24.8821
8.43206       97800       24.8694
8.44068       97900       24.8567
8.4493       98000       24.844
8.45792       98100       24.8314
8.46655       98200       24.8187
8.47517       98300       24.8061
8.48379       98400       24.7935
8.49241       98500       24.7809
8.50103       98600       24.7683
8.50966       98700       24.7558
8.51828       98800       24.7432
8.5269       98900       24.7307
8.53552       99000       24.7182
8.54414       99100       24.7058
8.55276       99200       24.6933
8.56139       99300       24.6809
8.57001       99400       24.6684
8.57863       99500       24.656
8.58725       99600       24.6437
8.59587       99700       24.6313
8.60449       99800       24.619
8.61312       99900       24.6066
8.62174       100000       24.5943
8.63036       100100       24.582
8.63898       100200       24.5698
8.6476       100300       24.5575
8.65622       100400       24.5453
8.66485       100500       24.5331
8.67347       100600       24.5209
8.68209       100700       24.5087
8.69071       100800       24.4965
8.69933       100900       24.4844
8.70796       101000       24.4723
8.71658       101100       24.4602
8.7252       101200       24.4481
8.73382       101300       24.436
8.74244       101400       24.424
8.75106       101500       24.4119
8.75969       101600       24.3999
8.76831       101700       24.3879
8.77693       101800       24.3759
8.78555       101900       24.364
8.79417       102000       24.352
8.80279       102100       24.3401
8.81142       102200       24.3282
8.82004       102300       24.3163
8.82866       102400       24.3044
8.83728       102500       24.2925
8.8459       102600       24.2807
8.85452       102700       24.2689
8.86315       102800       24.2571
8.87177       102900       24.2453
8.88039       103000       24.2335
8.88901       103100       24.2218
8.89763       103200       24.21
8.90626       103300       24.1983
8.91488       103400       24.1866
8.9235       103500       24.1749
8.93212       103600       24.1632
8.94074       103700       24.1516
8.94936       103800       24.1399
8.95799       103900       24.1283
8.96661       104000       24.1167
8.97523       104100       24.1051
8.98385       104200       24.0936
8.99247       104300       24.082
9.00109       104400       24.0705
9.00972       104500       24.059
9.01834       104600       24.0475
9.02696       104700       24.036
9.03558       104800       24.0245
9.0442       104900       24.013
9.05282       105000       24.0016
9.06145       105100       23.9902
9.07007       105200       23.9788
9.07869       105300       23.9674
9.08731       105400       23.956
9.09593       105500       23.9447
9.10456       105600       23.9333
9.11318       105700       23.922
9.1218       105800       23.9107
9.13042       105900       23.8994
9.13904       106000       23.8881
9.14766       106100       23.8769
9.15629       106200       23.8656
9.16491       106300       23.8544
9.17353       106400       23.8432
9.18215       106500       23.832
9.19077       106600       23.8208
9.19939       106700       23.8096
9.20802       106800       23.7985
9.21664       106900       23.7874
9.22526       107000       23.7762
9.23388       107100       23.7651
9.2425       107200       23.754
9.25112       107300       23.743
9.25975       107400       23.7319
9.26837       107500       23.7209
9.27699       107600       23.7099
9.28561       107700       23.6988
9.29423       107800       23.6878
9.30286       107900       23.6769
9.31148       108000       23.6659
9.3201       108100       23.655
9.32872       108200       23.644
9.33734       108300       23.6331
9.34596       108400       23.6222
9.35459       108500       23.6113
9.36321       108600       23.6004
9.37183       108700       23.5896
9.38045       108800       23.5787
9.38907       108900       23.5679
9.39769       109000       23.5571
9.40632       109100       23.5463
9.41494       109200       23.5355
9.42356       109300       23.5247
9.43218       109400       23.514
9.4408       109500       23.5032
9.44942       109600       23.4925
9.45805       109700       23.4818
9.46667       109800       23.4711
9.47529       109900       23.4604
9.48391       110000       23.4498
9.49253       110100       23.4391
9.50116       110200       23.4285
9.50978       110300       23.4179
9.5184       110400       23.4073
9.52702       110500       23.3967
9.53564       110600       23.3861
9.54426       110700       23.3755
9.55289       110800       23.365
9.56151       110900       23.3544
9.57013       111000       23.3439
9.57875       111100       23.3334
9.58737       111200       23.3229
9.59599       111300       23.3124
9.60462       111400       23.302
9.61324       111500       23.2915
9.62186       111600       23.2811
9.63048       111700       23.2706
9.6391       111800       23.2602
9.64772       111900       23.2498
9.65635       112000       23.2395
9.66497       112100       23.2291
9.67359       112200       23.2187
9.68221       112300       23.2084
9.69083       112400       23.1981
9.69946       112500       23.1878
9.70808       112600       23.1775
9.7167       112700       23.1672
9.72532       112800       23.1569
9.73394       112900       23.1466
9.74256       113000       23.1364
9.75119       113100       23.1262
9.75981       113200       23.116
9.76843       113300       23.1057
9.77705       113400       23.0956
9.78567       113500       23.0854
9.79429       113600       23.0752
9.80292       113700       23.0651
9.81154       113800       23.0549
9.82016       113900       23.0448
9.82878       114000       23.0347
9.8374       114100       23.0246
9.84602       114200       23.0145
9.85465       114300       23.0045
9.86327       114400       22.9944
9.87189       114500       22.9844
9.88051       114600       22.9743
9.88913       114700       22.9643
9.89776       114800       22.9543
9.90638       114900       22.9443
9.915       115000       22.9343
9.92362       115100       22.9244
9.93224       115200       22.9144
9.94086       115300       22.9045
9.94949       115400       22.8945
9.95811       115500       22.8846
9.96673       115600       22.8747
9.97535       115700       22.8648
9.98397       115800       22.855
9.99259       115900       22.8451
10.0012       116000       22.8353
10.0098       116100       22.8254
10.0185       116200       22.8156
10.0271       116300       22.8058
10.0357       116400       22.796
10.0443       116500       22.7862
10.0529       116600       22.7764
10.0616       116700       22.7667
10.0702       116800       22.7569
10.0788       116900       22.7472
10.0874       117000       22.7375
10.0961       117100       22.7278
10.1047       117200       22.7181
10.1133       117300       22.7084
10.1219       117400       22.6987
10.1305       117500       22.689
10.1392       117600       22.6794
10.1478       117700       22.6698
10.1564       117800       22.6601
10.165       117900       22.6505
10.1737       118000       22.6409
10.1823       118100       22.6313
10.1909       118200       22.6218
10.1995       118300       22.6122
10.2081       118400       22.6026
10.2168       118500       22.5931
10.2254       118600       22.5836
10.234       118700       22.5741
10.2426       118800       22.5646
10.2512       118900       22.5551
10.2599       119000       22.5456
10.2685       119100       22.5361
10.2771       119200       22.5267
10.2857       119300       22.5172
10.2944       119400       22.5078
10.303       119500       22.4984
10.3116       119600       22.489
10.3202       119700       22.4796
10.3288       119800       22.4702
10.3375       119900       22.4608
10.3461       120000       22.4514
10.3547       120100       22.4421
10.3633       120200       22.4328
10.372       120300       22.4234
10.3806       120400       22.4141
10.3892       120500       22.4048
10.3978       120600       22.3955
10.4064       120700       22.3862
10.4151       120800       22.377
10.4237       120900       22.3677
10.4323       121000       22.3585
10.4409       121100       22.3492
10.4495       121200       22.34
10.4582       121300       22.3308
10.4668       121400       22.3216
10.4754       121500       22.3124
10.484       121600       22.3033
10.4927       121700       22.2941
10.5013       121800       22.2849
10.5099       121900       22.2758
10.5185       122000       22.2667
10.5271       122100       22.2575
10.5358       122200       22.2484
10.5444       122300       22.2393
10.553       122400       22.2302
10.5616       122500       22.2212
10.5703       122600       22.2121
10.5789       122700       22.2031
10.5875       122800       22.194
10.5961       122900       22.185
10.6047       123000       22.176
10.6134       123100       22.167
10.622       123200       22.158
10.6306       123300       22.149
10.6392       123400       22.14
10.6478       123500       22.131
10.6565       123600       22.1221
10.6651       123700       22.1131
10.6737       123800       22.1042
10.6823       123900       22.0953
10.691       124000       22.0864
10.6996       124100       22.0775
10.7082       124200       22.0686
10.7168       124300       22.0597
10.7254       124400       22.0508
10.7341       124500       22.042
10.7427       124600       22.0331
10.7513       124700       22.0243
10.7599       124800       22.0155
10.7686       124900       22.0066
10.7772       125000       21.9978
10.7858       125100       21.989
10.7944       125200       21.9803
10.803       125300       21.9715
10.8117       125400       21.9627
10.8203       125500       21.954
10.8289       125600       21.9452
10.8375       125700       21.9365
10.8461       125800       21.9278
10.8548       125900       21.9191
10.8634       126000       21.9104
10.872       126100       21.9017
10.8806       126200       21.893
10.8893       126300       21.8843
10.8979       126400       21.8757
10.9065       126500       21.867
10.9151       126600       21.8584
10.9237       126700       21.8498
10.9324       126800       21.8411
10.941       126900       21.8325
10.9496       127000       21.8239
10.9582       127100       21.8154
10.9669       127200       21.8068
10.9755       127300       21.7982
10.9841       127400       21.7897
10.9927       127500       21.7811
11.0013       127600       21.7726
11.01       127700       21.764
11.0186       127800       21.7555
11.0272       127900       21.747
11.0358       128000       21.7385
11.0444       128100       21.73
11.0531       128200       21.7216
11.0617       128300       21.7131
11.0703       128400       21.7046
11.0789       128500       21.6962
11.0876       128600       21.6877
11.0962       128700       21.6793
11.1048       128800       21.6709
11.1134       128900       21.6625
11.122       129000       21.6541
11.1307       129100       21.6457
11.1393       129200       21.6373
11.1479       129300       21.629
11.1565       129400       21.6206
11.1652       129500       21.6123
11.1738       129600       21.6039
11.1824       129700       21.5956
11.191       129800       21.5873
11.1996       129900       21.579
11.2083       130000       21.5707
11.2169       130100       21.5624
11.2255       130200       21.5541
11.2341       130300       21.5458
11.2427       130400       21.5375
11.2514       130500       21.5293
11.26       130600       21.521
11.2686       130700       21.5128
11.2772       130800       21.5046
11.2859       130900       21.4964
11.2945       131000       21.4882
11.3031       131100       21.48
11.3117       131200       21.4718
11.3203       131300       21.4636
11.329       131400       21.4554
11.3376       131500       21.4473
11.3462       131600       21.4391
11.3548       131700       21.431
11.3635       131800       21.4229
11.3721       131900       21.4147
11.3807       132000       21.4066
11.3893       132100       21.3985
11.3979       132200       21.3904
11.4066       132300       21.3823
11.4152       132400       21.3743
11.4238       132500       21.3662
11.4324       132600       21.3581
11.441       132700       21.3501
11.4497       132800       21.342
11.4583       132900       21.334
11.4669       133000       21.326
11.4755       133100       21.318
11.4842       133200       21.31
11.4928       133300       21.302
11.5014       133400       21.294
11.51       133500       21.286
11.5186       133600       21.278
11.5273       133700       21.2701
11.5359       133800       21.2621
11.5445       133900       21.2542
11.5531       134000       21.2463
11.5618       134100       21.2383
11.5704       134200       21.2304
11.579       134300       21.2225
11.5876       134400       21.2146
11.5962       134500       21.2067
11.6049       134600       21.1989
11.6135       134700       21.191
11.6221       134800       21.1831
11.6307       134900       21.1753
11.6393       135000       21.1674
11.648       135100       21.1596
11.6566       135200       21.1518
11.6652       135300       21.1439
11.6738       135400       21.1361
11.6825       135500       21.1283
11.6911       135600       21.1205
11.6997       135700       21.1128
11.7083       135800       21.105
11.7169       135900       21.0972
11.7256       136000       21.0895
11.7342       136100       21.0817
11.7428       136200       21.074
11.7514       136300       21.0662
11.7601       136400       21.0585
11.7687       136500       21.0508
11.7773       136600       21.0431
11.7859       136700       21.0354
11.7945       136800       21.0277
11.8032       136900       21.02
11.8118       137000       21.0124
11.8204       137100       21.0047
11.829       137200       20.997
11.8376       137300       20.9894
11.8463       137400       20.9817
11.8549       137500       20.9741
11.8635       137600       20.9665
11.8721       137700       20.9589
11.8808       137800       20.9513
11.8894       137900       20.9437
11.898       138000       20.9361
11.9066       138100       20.9285
11.9152       138200       20.9209
11.9239       138300       20.9134
11.9325       138400       20.9058
11.9411       138500       20.8983
11.9497       138600       20.8907
11.9584       138700       20.8832
11.967       138800       20.8757
11.9756       138900       20.8681
11.9842       139000       20.8606
11.9928       139100       20.8531
12.0015       139200       20.8456
12.0101       139300       20.8382
12.0187       139400       20.8307
12.0273       139500       20.8232
12.0359       139600       20.8158
12.0446       139700       20.8083
12.0532       139800       20.8009
12.0618       139900       20.7934
12.0704       140000       20.786
12.0791       140100       20.7786
12.0877       140200       20.7712
12.0963       140300       20.7638
12.1049       140400       20.7564
12.1135       140500       20.749
12.1222       140600       20.7416
12.1308       140700       20.7342
12.1394       140800       20.7269
12.148       140900       20.7195
12.1567       141000       20.7122
12.1653       141100       20.7048
12.1739       141200       20.6975
12.1825       141300       20.6902
12.1911       141400       20.6828
12.1998       141500       20.6755
12.2084       141600       20.6682
12.217       141700       20.6609
12.2256       141800       20.6537
12.2342       141900       20.6464
12.2429       142000       20.6391
12.2515       142100       20.6318
12.2601       142200       20.6246
12.2687       142300       20.6173
12.2774       142400       20.6101
12.286       142500       20.6029
12.2946       142600       20.5956
12.3032       142700       20.5884
12.3118       142800       20.5812
12.3205       142900       20.574
12.3291       143000       20.5668
12.3377       143100       20.5596
12.3463       143200       20.5524
12.355       143300       20.5453
12.3636       143400       20.5381
12.3722       143500       20.5309
12.3808       143600       20.5238
12.3894       143700       20.5167
12.3981       143800       20.5095
12.4067       143900       20.5024
12.4153       144000       20.4953
12.4239       144100       20.4882
12.4325       144200       20.4811
12.4412       144300       20.474
12.4498       144400       20.4669
12.4584       144500       20.4598
12.467       144600       20.4527
12.4757       144700       20.4456
12.4843       144800       20.4386
12.4929       144900       20.4315
12.5015       145000       20.4245
12.5101       145100       20.4174
12.5188       145200       20.4104
12.5274       145300       20.4034
12.536       145400       20.3964
12.5446       145500       20.3894
12.5533       145600       20.3824
12.5619       145700       20.3754
12.5705       145800       20.3684
12.5791       145900       20.3614
12.5877       146000       20.3544
12.5964       146100       20.3474
12.605       146200       20.3405
12.6136       146300       20.3335
12.6222       146400       20.3266
12.6308       146500       20.3196
12.6395       146600       20.3127
12.6481       146700       20.3058
12.6567       146800       20.2989
12.6653       146900       20.292
12.674       147000       20.2851
12.6826       147100       20.2782
12.6912       147200       20.2713
12.6998       147300       20.2644
12.7084       147400       20.2575
12.7171       147500       20.2507
12.7257       147600       20.2438
12.7343       147700       20.2369
12.7429       147800       20.2301
12.7516       147900       20.2232
12.7602       148000       20.2164
12.7688       148100       20.2096
12.7774       148200       20.2028
12.786       148300       20.196
12.7947       148400       20.1891
12.8033       148500       20.1824
12.8119       148600       20.1756
12.8205       148700       20.1688
12.8291       148800       20.162
12.8378       148900       20.1552
12.8464       149000       20.1485
12.855       149100       20.1417
12.8636       149200       20.135
12.8723       149300       20.1282
12.8809       149400       20.1215
12.8895       149500       20.1147
12.8981       149600       20.108
12.9067       149700       20.1013
12.9154       149800       20.0946
12.924       149900       20.0879
12.9326       150000       20.0812
12.9412       150100       20.0745
12.9499       150200       20.0678
12.9585       150300       20.0611
12.9671       150400       20.0545
12.9757       150500       20.0478
12.9843       150600       20.0411
12.993       150700       20.0345
13.0016       150800       20.0278
13.0102       150900       20.0212
13.0188       151000       20.0146
13.0274       151100       20.008
13.0361       151200       20.0013
13.0447       151300       19.9947
13.0533       151400       19.9881
13.0619       151500       19.9815
13.0706       151600       19.9749
13.0792       151700       19.9684
13.0878       151800       19.9618
13.0964       151900       19.9552
13.105       152000       19.9486
13.1137       152100       19.9421
13.1223       152200       19.9355
13.1309       152300       19.929
13.1395       152400       19.9224
13.1482       152500       19.9159
13.1568       152600       19.9094
13.1654       152700       19.9029
13.174       152800       19.8963
13.1826       152900       19.8898
13.1913       153000       19.8833
13.1999       153100       19.8768
13.2085       153200       19.8704
13.2171       153300       19.8639
13.2257       153400       19.8574
13.2344       153500       19.8509
13.243       153600       19.8445
13.2516       153700       19.838
13.2602       153800       19.8316
13.2689       153900       19.8251
13.2775       154000       19.8187
13.2861       154100       19.8122
13.2947       154200       19.8058
13.3033       154300       19.7994
13.312       154400       19.793
13.3206       154500       19.7866
13.3292       154600       19.7802
13.3378       154700       19.7738
13.3465       154800       19.7674
13.3551       154900       19.761
13.3637       155000       19.7546
13.3723       155100       19.7483
13.3809       155200       19.7419
13.3896       155300       19.7356
13.3982       155400       19.7292
13.4068       155500       19.7229
13.4154       155600       19.7165
13.424       155700       19.7102
13.4327       155800       19.7039
13.4413       155900       19.6975
13.4499       156000       19.6912
13.4585       156100       19.6849
13.4672       156200       19.6786
13.4758       156300       19.6723
13.4844       156400       19.666
13.493       156500       19.6597
13.5016       156600       19.6535
13.5103       156700       19.6472
13.5189       156800       19.6409
13.5275       156900       19.6347
13.5361       157000       19.6284
13.5448       157100       19.6222
13.5534       157200       19.6159
13.562       157300       19.6097
13.5706       157400       19.6035
13.5792       157500       19.5972
13.5879       157600       19.591
13.5965       157700       19.5848
13.6051       157800       19.5786
13.6137       157900       19.5724
13.6223       158000       19.5662
13.631       158100       19.56
13.6396       158200       19.5538
13.6482       158300       19.5476
13.6568       158400       19.5415
13.6655       158500       19.5353
13.6741       158600       19.5292
13.6827       158700       19.523
13.6913       158800       19.5169
13.6999       158900       19.5107
13.7086       159000       19.5046
13.7172       159100       19.4984
13.7258       159200       19.4923
13.7344       159300       19.4862
13.7431       159400       19.4801
13.7517       159500       19.474
13.7603       159600       19.4679
13.7689       159700       19.4618
13.7775       159800       19.4557
13.7862       159900       19.4496
13.7948       160000       19.4435
13.8034       160100       19.4375
13.812       160200       19.4314
13.8206       160300       19.4253
13.8293       160400       19.4193
13.8379       160500       19.4132
13.8465       160600       19.4072
13.8551       160700       19.4011
13.8638       160800       19.3951
13.8724       160900       19.3891
13.881       161000       19.383
13.8896       161100       19.377
13.8982       161200       19.371
13.9069       161300       19.365
13.9155       161400       19.359
13.9241       161500       19.353
13.9327       161600       19.347
13.9414       161700       19.341
13.95       161800       19.3351
13.9586       161900       19.3291
13.9672       162000       19.3231
13.9758       162100       19.3172
13.9845       162200       19.3112
13.9931       162300       19.3053
14.0017       162400       19.2993
14.0103       162500       19.2934
14.0189       162600       19.2874
14.0276       162700       19.2815
14.0362       162800       19.2756
14.0448       162900       19.2697
14.0534       163000       19.2638
14.0621       163100       19.2579
14.0707       163200       19.252
14.0793       163300       19.2461
14.0879       163400       19.2402
14.0965       163500       19.2343
14.1052       163600       19.2284
14.1138       163700       19.2225
14.1224       163800       19.2167
14.131       163900       19.2108
14.1397       164000       19.2049
14.1483       164100       19.1991
14.1569       164200       19.1932
14.1655       164300       19.1874
14.1741       164400       19.1816
14.1828       164500       19.1757
14.1914       164600       19.1699
14.2       164700       19.1641
14.2086       164800       19.1583
14.2172       164900       19.1525
14.2259       165000       19.1467
14.2345       165100       19.1409
14.2431       165200       19.1351
14.2517       165300       19.1293
14.2604       165400       19.1235
14.269       165500       19.1177
14.2776       165600       19.1119
14.2862       165700       19.1062
14.2948       165800       19.1004
14.3035       165900       19.0947
14.3121       166000       19.0889
14.3207       166100       19.0832
14.3293       166200       19.0774
14.338       166300       19.0717
14.3466       166400       19.0659
14.3552       166500       19.0602
14.3638       166600       19.0545
14.3724       166700       19.0488
14.3811       166800       19.0431
14.3897       166900       19.0374
14.3983       167000       19.0317
14.4069       167100       19.026
14.4155       167200       19.0203
14.4242       167300       19.0146
14.4328       167400       19.0089
14.4414       167500       19.0032
14.45       167600       18.9976
14.4587       167700       18.9919
14.4673       167800       18.9862
14.4759       167900       18.9806
14.4845       168000       18.9749
14.4931       168100       18.9693
14.5018       168200       18.9637
14.5104       168300       18.958
14.519       168400       18.9524
14.5276       168500       18.9468
14.5363       168600       18.9411
14.5449       168700       18.9355
14.5535       168800       18.9299
14.5621       168900       18.9243
14.5707       169000       18.9187
14.5794       169100       18.9131
14.588       169200       18.9075
14.5966       169300       18.9019
14.6052       169400       18.8964
14.6138       169500       18.8908
14.6225       169600       18.8852
14.6311       169700       18.8797
14.6397       169800       18.8741
14.6483       169900       18.8685
14.657       170000       18.863
14.6656       170100       18.8574
14.6742       170200       18.8519
14.6828       170300       18.8464
14.6914       170400       18.8408
14.7001       170500       18.8353
14.7087       170600       18.8298
14.7173       170700       18.8243
14.7259       170800       18.8188
14.7346       170900       18.8133
14.7432       171000       18.8078
14.7518       171100       18.8023
14.7604       171200       18.7968
14.769       171300       18.7913
14.7777       171400       18.7858
14.7863       171500       18.7803
14.7949       171600       18.7748
14.8035       171700       18.7694
14.8121       171800       18.7639
14.8208       171900       18.7585
14.8294       172000       18.753
14.838       172100       18.7476
14.8466       172200       18.7421
14.8553       172300       18.7367
14.8639       172400       18.7312
14.8725       172500       18.7258
14.8811       172600       18.7204
14.8897       172700       18.715
14.8984       172800       18.7095
14.907       172900       18.7041
14.9156       173000       18.6987
14.9242       173100       18.6933
14.9329       173200       18.6879
14.9415       173300       18.6825
14.9501       173400       18.6771
14.9587       173500       18.6718
14.9673       173600       18.6664
14.976       173700       18.661
14.9846       173800       18.6556
14.9932       173900       18.6503
15.0018       174000       18.6449
15.0104       174100       18.6396
15.0191       174200       18.6342
15.0277       174300       18.6289
15.0363       174400       18.6235
15.0449       174500       18.6182
15.0536       174600       18.6128
15.0622       174700       18.6075
15.0708       174800       18.6022
15.0794       174900       18.5969
15.088       175000       18.5916
15.0967       175100       18.5863
15.1053       175200       18.581
15.1139       175300       18.5757
15.1225       175400       18.5704
15.1312       175500       18.5651
15.1398       175600       18.5598
15.1484       175700       18.5545
15.157       175800       18.5492
15.1656       175900       18.5439
15.1743       176000       18.5387
15.1829       176100       18.5334
15.1915       176200       18.5281
15.2001       176300       18.5229
15.2087       176400       18.5176
15.2174       176500       18.5124
15.226       176600       18.5072
15.2346       176700       18.5019
15.2432       176800       18.4967
15.2519       176900       18.4915
15.2605       177000       18.4862
15.2691       177100       18.481
15.2777       177200       18.4758
15.2863       177300       18.4706
15.295       177400       18.4654
15.3036       177500       18.4602
15.3122       177600       18.455
15.3208       177700       18.4498
15.3295       177800       18.4446
15.3381       177900       18.4394
15.3467       178000       18.4342
15.3553       178100       18.4291
15.3639       178200       18.4239
15.3726       178300       18.4187
15.3812       178400       18.4136
15.3898       178500       18.4084
15.3984       178600       18.4032
15.407       178700       18.3981
15.4157       178800       18.3929
15.4243       178900       18.3878
15.4329       179000       18.3827
15.4415       179100       18.3775
15.4502       179200       18.3724
15.4588       179300       18.3673
15.4674       179400       18.3622
15.476       179500       18.357
15.4846       179600       18.3519
15.4933       179700       18.3468
15.5019       179800       18.3417
15.5105       179900       18.3366
15.5191       180000       18.3315
15.5278       180100       18.3264
15.5364       180200       18.3214
15.545       180300       18.3163
15.5536       180400       18.3112
15.5622       180500       18.3061
15.5709       180600       18.3011
15.5795       180700       18.296
15.5881       180800       18.2909
15.5967       180900       18.2859
15.6053       181000       18.2808
15.614       181100       18.2758
15.6226       181200       18.2707
15.6312       181300       18.2657
15.6398       181400       18.2607
15.6485       181500       18.2556
15.6571       181600       18.2506
15.6657       181700       18.2456
15.6743       181800       18.2406
15.6829       181900       18.2355
15.6916       182000       18.2305
15.7002       182100       18.2255
15.7088       182200       18.2205
15.7174       182300       18.2155
15.7261       182400       18.2105
15.7347       182500       18.2055
15.7433       182600       18.2006
15.7519       182700       18.1956
15.7605       182800       18.1906
15.7692       182900       18.1856
15.7778       183000       18.1807
15.7864       183100       18.1757
15.795       183200       18.1707
15.8036       183300       18.1658
15.8123       183400       18.1608
15.8209       183500       18.1559
15.8295       183600       18.1509
15.8381       183700       18.146
15.8468       183800       18.141
15.8554       183900       18.1361
15.864       184000       18.1312
15.8726       184100       18.1263
15.8812       184200       18.1213
15.8899       184300       18.1164
15.8985       184400       18.1115
15.9071       184500       18.1066
15.9157       184600       18.1017
15.9244       184700       18.0968
15.933       184800       18.0919
15.9416       184900       18.087
15.9502       185000       18.0821
15.9588       185100       18.0772
15.9675       185200       18.0723
15.9761       185300       18.0675
15.9847       185400       18.0626
15.9933       185500       18.0577
16.0019       185600       18.0529
16.0106       185700       18.048
16.0192       185800       18.0431
16.0278       185900       18.0383
16.0364       186000       18.0334
16.0451       186100       18.0286
16.0537       186200       18.0237
16.0623       186300       18.0189
16.0709       186400       18.0141
16.0795       186500       18.0092
16.0882       186600       18.0044
16.0968       186700       17.9996
16.1054       186800       17.9948
16.114       186900       17.99
16.1227       187000       17.9852
16.1313       187100       17.9803
16.1399       187200       17.9755
16.1485       187300       17.9707
16.1571       187400       17.9659
16.1658       187500       17.9612
16.1744       187600       17.9564
16.183       187700       17.9516
16.1916       187800       17.9468
16.2002       187900       17.942
16.2089       188000       17.9373
16.2175       188100       17.9325
16.2261       188200       17.9277
16.2347       188300       17.923
16.2434       188400       17.9182
16.252       188500       17.9135
16.2606       188600       17.9087
16.2692       188700       17.904
16.2778       188800       17.8992
16.2865       188900       17.8945
16.2951       189000       17.8897
16.3037       189100       17.885
16.3123       189200       17.8803
16.321       189300       17.8756
16.3296       189400       17.8708
16.3382       189500       17.8661
16.3468       189600       17.8614
16.3554       189700       17.8567
16.3641       189800       17.852
16.3727       189900       17.8473
16.3813       190000       17.8426
16.3899       190100       17.8379
16.3985       190200       17.8332
16.4072       190300       17.8285
16.4158       190400       17.8238
16.4244       190500       17.8192
16.433       190600       17.8145
16.4417       190700       17.8098
16.4503       190800       17.8052
16.4589       190900       17.8005
16.4675       191000       17.7958
16.4761       191100       17.7912
16.4848       191200       17.7865
16.4934       191300       17.7819
16.502       191400       17.7772
16.5106       191500       17.7726
16.5193       191600       17.7679
16.5279       191700       17.7633
16.5365       191800       17.7587
16.5451       191900       17.7541
16.5537       192000       17.7494
16.5624       192100       17.7448
16.571       192200       17.7402
16.5796       192300       17.7356
16.5882       192400       17.731
16.5968       192500       17.7264
16.6055       192600       17.7218
16.6141       192700       17.7172
16.6227       192800       17.7126
16.6313       192900       17.708
16.64       193000       17.7034
16.6486       193100       17.6988
16.6572       193200       17.6942
16.6658       193300       17.6896
16.6744       193400       17.6851
16.6831       193500       17.6805
16.6917       193600       17.6759
16.7003       193700       17.6714
16.7089       193800       17.6668
16.7175       193900       17.6623
16.7262       194000       17.6577
16.7348       194100       17.6531
16.7434       194200       17.6486
16.752       194300       17.6441
16.7607       194400       17.6395
16.7693       194500       17.635
16.7779       194600       17.6305
16.7865       194700       17.6259
16.7951       194800       17.6214
16.8038       194900       17.6169
16.8124       195000       17.6124
16.821       195100       17.6079
16.8296       195200       17.6033
16.8383       195300       17.5988
16.8469       195400       17.5943
16.8555       195500       17.5898
16.8641       195600       17.5853
16.8727       195700       17.5808
16.8814       195800       17.5763
16.89       195900       17.5719
16.8986       196000       17.5674
16.9072       196100       17.5629
16.9158       196200       17.5584
16.9245       196300       17.5539
16.9331       196400       17.5495
16.9417       196500       17.545
16.9503       196600       17.5406
16.959       196700       17.5361
16.9676       196800       17.5316
16.9762       196900       17.5272
16.9848       197000       17.5227
16.9934       197100       17.5183
17.0021       197200       17.5138
17.0107       197300       17.5094
17.0193       197400       17.505
17.0279       197500       17.5005
17.0366       197600       17.4961
17.0452       197700       17.4917
17.0538       197800       17.4873
17.0624       197900       17.4828
17.071       198000       17.4784
17.0797       198100       17.474
17.0883       198200       17.4696
17.0969       198300       17.4652
17.1055       198400       17.4608
17.1141       198500       17.4564
17.1228       198600       17.452
17.1314       198700       17.4476
17.14       198800       17.4432
17.1486       198900       17.4388
17.1573       199000       17.4345
17.1659       199100       17.4301
17.1745       199200       17.4257
17.1831       199300       17.4213
17.1917       199400       17.417
17.2004       199500       17.4126
17.209       199600       17.4082
17.2176       199700       17.4039
17.2262       199800       17.3995
17.2349       199900       17.3952
17.2435       200000       17.3908
17.2521       200100       17.3865
17.2607       200200       17.3821
17.2693       200300       17.3778
17.278       200400       17.3735
17.2866       200500       17.3691
17.2952       200600       17.3648
17.3038       200700       17.3605
17.3124       200800       17.3561
17.3211       200900       17.3518
17.3297       201000       17.3475
17.3383       201100       17.3432
17.3469       201200       17.3389
17.3556       201300       17.3346
17.3642       201400       17.3303
17.3728       201500       17.326
17.3814       201600       17.3217
17.39       201700       17.3174
17.3987       201800       17.3131
17.4073       201900       17.3088
17.4159       202000       17.3045
17.4245       202100       17.3002
17.4332       202200       17.2959
17.4418       202300       17.2917
17.4504       202400       17.2874
17.459       202500       17.2831
17.4676       202600       17.2789
17.4763       202700       17.2746
17.4849       202800       17.2703
17.4935       202900       17.2661
17.5021       203000       17.2618
17.5107       203100       17.2576
17.5194       203200       17.2533
17.528       203300       17.2491
17.5366       203400       17.2449
17.5452       203500       17.2406
17.5539       203600       17.2364
17.5625       203700       17.2321
17.5711       203800       17.2279
17.5797       203900       17.2237
17.5883       204000       17.2195
17.597       204100       17.2153
17.6056       204200       17.211
17.6142       204300       17.2068
17.6228       204400       17.2026
17.6315       204500       17.1984
17.6401       204600       17.1942
17.6487       204700       17.19
17.6573       204800       17.1858
17.6659       204900       17.1816
17.6746       205000       17.1774
17.6832       205100       17.1732
17.6918       205200       17.1691
17.7004       205300       17.1649
17.709       205400       17.1607
17.7177       205500       17.1565
17.7263       205600       17.1523
17.7349       205700       17.1482
17.7435       205800       17.144
17.7522       205900       17.1398
17.7608       206000       17.1357
17.7694       206100       17.1315
17.778       206200       17.1274
17.7866       206300       17.1232
17.7953       206400       17.1191
17.8039       206500       17.1149
17.8125       206600       17.1108
17.8211       206700       17.1066
17.8298       206800       17.1025
17.8384       206900       17.0984
17.847       207000       17.0942
17.8556       207100       17.0901
17.8642       207200       17.086
17.8729       207300       17.0819
17.8815       207400       17.0777
17.8901       207500       17.0736
17.8987       207600       17.0695
17.9073       207700       17.0654
17.916       207800       17.0613
17.9246       207900       17.0572
17.9332       208000       17.0531
17.9418       208100       17.049
17.9505       208200       17.0449
17.9591       208300       17.0408
17.9677       208400       17.0367
17.9763       208500       17.0326
17.9849       208600       17.0286
17.9936       208700       17.0245
18.0022       208800       17.0204
18.0108       208900       17.0163
18.0194       209000       17.0123
18.0281       209100       17.0082
18.0367       209200       17.0041
18.0453       209300       17.0001
18.0539       209400       16.996
18.0625       209500       16.9919
18.0712       209600       16.9879
18.0798       209700       16.9838
18.0884       209800       16.9798
18.097       209900       16.9757
18.1056       210000       16.9717
18.1143       210100       16.9677
18.1229       210200       16.9636
18.1315       210300       16.9596
18.1401       210400       16.9556
18.1488       210500       16.9515
18.1574       210600       16.9475
18.166       210700       16.9435
18.1746       210800       16.9395
18.1832       210900       16.9354
18.1919       211000       16.9314
18.2005       211100       16.9274
18.2091       211200       16.9234
18.2177       211300       16.9194
18.2264       211400       16.9154
18.235       211500       16.9114
18.2436       211600       16.9074
18.2522       211700       16.9034
18.2608       211800       16.8994
18.2695       211900       16.8954
18.2781       212000       16.8915
18.2867       212100       16.8875
18.2953       212200       16.8835
18.3039       212300       16.8795
18.3126       212400       16.8755
18.3212       212500       16.8716
18.3298       212600       16.8676
18.3384       212700       16.8636
18.3471       212800       16.8597
18.3557       212900       16.8557
18.3643       213000       16.8518
18.3729       213100       16.8478
18.3815       213200       16.8439
18.3902       213300       16.8399
18.3988       213400       16.836
18.4074       213500       16.832
18.416       213600       16.8281
18.4247       213700       16.8241
18.4333       213800       16.8202
18.4419       213900       16.8163
18.4505       214000       16.8123
18.4591       214100       16.8084
18.4678       214200       16.8045
18.4764       214300       16.8006
18.485       214400       16.7966
18.4936       214500       16.7927
18.5022       214600       16.7888
18.5109       214700       16.7849
18.5195       214800       16.781
18.5281       214900       16.7771
18.5367       215000       16.7732
18.5454       215100       16.7693
18.554       215200       16.7654
18.5626       215300       16.7615
18.5712       215400       16.7576
18.5798       215500       16.7537
18.5885       215600       16.7498
18.5971       215700       16.746
18.6057       215800       16.7421
18.6143       215900       16.7382
18.623       216000       16.7343
18.6316       216100       16.7304
18.6402       216200       16.7266
18.6488       216300       16.7227
18.6574       216400       16.7188
18.6661       216500       16.715
18.6747       216600       16.7111
18.6833       216700       16.7073
18.6919       216800       16.7034
18.7005       216900       16.6996
18.7092       217000       16.6957
18.7178       217100       16.6919
18.7264       217200       16.688
18.735       217300       16.6842
18.7437       217400       16.6804
18.7523       217500       16.6765
18.7609       217600       16.6727
18.7695       217700       16.6689
18.7781       217800       16.665
18.7868       217900       16.6612
18.7954       218000       16.6574
18.804       218100       16.6536
18.8126       218200       16.6497
18.8213       218300       16.6459
18.8299       218400       16.6421
18.8385       218500       16.6383
18.8471       218600       16.6345
18.8557       218700       16.6307
18.8644       218800       16.6269
18.873       218900       16.6231
18.8816       219000       16.6193
18.8902       219100       16.6155
18.8988       219200       16.6117
18.9075       219300       16.6079
18.9161       219400       16.6042
18.9247       219500       16.6004
18.9333       219600       16.5966
18.942       219700       16.5928
18.9506       219800       16.589
18.9592       219900       16.5853
18.9678       220000       16.5815
18.9764       220100       16.5777
18.9851       220200       16.574
18.9937       220300       16.5702
19.0023       220400       16.5664
19.0109       220500       16.5627
19.0196       220600       16.5589
19.0282       220700       16.5552
19.0368       220800       16.5514
19.0454       220900       16.5477
19.054       221000       16.5439
19.0627       221100       16.5402
19.0713       221200       16.5365
19.0799       221300       16.5327
19.0885       221400       16.529
19.0971       221500       16.5253
19.1058       221600       16.5215
19.1144       221700       16.5178
19.123       221800       16.5141
19.1316       221900       16.5104
19.1403       222000       16.5066
19.1489       222100       16.5029
19.1575       222200       16.4992
19.1661       222300       16.4955
19.1747       222400       16.4918
19.1834       222500       16.4881
19.192       222600       16.4844
19.2006       222700       16.4807
19.2092       222800       16.477
19.2179       222900       16.4733
19.2265       223000       16.4696
19.2351       223100       16.4659
19.2437       223200       16.4622
19.2523       223300       16.4585
19.261       223400       16.4548
19.2696       223500       16.4511
19.2782       223600       16.4475
19.2868       223700       16.4438
19.2954       223800       16.4401
19.3041       223900       16.4364
19.3127       224000       16.4328
19.3213       224100       16.4291
19.3299       224200       16.4254
19.3386       224300       16.4218
19.3472       224400       16.4181
19.3558       224500       16.4145
19.3644       224600       16.4108
19.373       224700       16.4072
19.3817       224800       16.4035
19.3903       224900       16.3999
19.3989       225000       16.3962
19.4075       225100       16.3926
19.4162       225200       16.3889
19.4248       225300       16.3853
19.4334       225400       16.3817
19.442       225500       16.378
19.4506       225600       16.3744
19.4593       225700       16.3708
19.4679       225800       16.3671
19.4765       225900       16.3635
19.4851       226000       16.3599
19.4937       226100       16.3563
19.5024       226200       16.3527
19.511       226300       16.3491
19.5196       226400       16.3454
19.5282       226500       16.3418
19.5369       226600       16.3382
19.5455       226700       16.3346
19.5541       226800       16.331
19.5627       226900       16.3274
19.5713       227000       16.3238
19.58       227100       16.3202
19.5886       227200       16.3166
19.5972       227300       16.3131
19.6058       227400       16.3095
19.6145       227500       16.3059
19.6231       227600       16.3023
19.6317       227700       16.2987
19.6403       227800       16.2951
19.6489       227900       16.2916
19.6576       228000       16.288
19.6662       228100       16.2844
19.6748       228200       16.2809
19.6834       228300       16.2773
19.692       228400       16.2737
19.7007       228500       16.2702
19.7093       228600       16.2666
19.7179       228700       16.263
19.7265       228800       16.2595
19.7352       228900       16.2559
19.7438       229000       16.2524
19.7524       229100       16.2488
19.761       229200       16.2453
19.7696       229300       16.2418
19.7783       229400       16.2382
19.7869       229500       16.2347
19.7955       229600       16.2311
19.8041       229700       16.2276
19.8128       229800       16.2241
19.8214       229900       16.2205
19.83       230000       16.217
19.8386       230100       16.2135
19.8472       230200       16.21
19.8559       230300       16.2065
19.8645       230400       16.2029
19.8731       230500       16.1994
19.8817       230600       16.1959
19.8903       230700       16.1924
19.899       230800       16.1889
19.9076       230900       16.1854
19.9162       231000       16.1819
19.9248       231100       16.1784
19.9335       231200       16.1749
19.9421       231300       16.1714
19.9507       231400       16.1679
19.9593       231500       16.1644
19.9679       231600       16.1609
19.9766       231700       16.1574
19.9852       231800       16.1539
19.9938       231900       16.1504
20.0024       232000       16.147
20.0111       232100       16.1435
20.0197       232200       16.14
20.0283       232300       16.1365
20.0369       232400       16.1331
20.0455       232500       16.1296
20.0542       232600       16.1261
20.0628       232700       16.1227
20.0714       232800       16.1192
20.08       232900       16.1157
20.0886       233000       16.1123
20.0973       233100       16.1088
20.1059       233200       16.1054
20.1145       233300       16.1019
20.1231       233400       16.0985
20.1318       233500       16.095
20.1404       233600       16.0916
20.149       233700       16.0881
20.1576       233800       16.0847
20.1662       233900       16.0813
20.1749       234000       16.0778
20.1835       234100       16.0744
20.1921       234200       16.0709
20.2007       234300       16.0675
20.2094       234400       16.0641
20.218       234500       16.0607
20.2266       234600       16.0572
20.2352       234700       16.0538
20.2438       234800       16.0504
20.2525       234900       16.047
20.2611       235000       16.0436
20.2697       235100       16.0402
20.2783       235200       16.0367
20.2869       235300       16.0333
20.2956       235400       16.0299
20.3042       235500       16.0265
20.3128       235600       16.0231
20.3214       235700       16.0197
20.3301       235800       16.0163
20.3387       235900       16.0129
20.3473       236000       16.0095
20.3559       236100       16.0062
20.3645       236200       16.0028
20.3732       236300       15.9994
20.3818       236400       15.996
20.3904       236500       15.9926
20.399       236600       15.9892
20.4077       236700       15.9859
20.4163       236800       15.9825
20.4249       236900       15.9791
20.4335       237000       15.9757
20.4421       237100       15.9724
20.4508       237200       15.969
20.4594       237300       15.9656
20.468       237400       15.9623
20.4766       237500       15.9589
20.4852       237600       15.9555
20.4939       237700       15.9522
20.5025       237800       15.9488
20.5111       237900       15.9455
20.5197       238000       15.9421
20.5284       238100       15.9388
20.537       238200       15.9354
20.5456       238300       15.9321
20.5542       238400       15.9288
20.5628       238500       15.9254
20.5715       238600       15.9221
20.5801       238700       15.9187
20.5887       238800       15.9154
20.5973       238900       15.9121
20.606       239000       15.9087
20.6146       239100       15.9054
20.6232       239200       15.9021
20.6318       239300       15.8988
20.6404       239400       15.8955
20.6491       239500       15.8921
20.6577       239600       15.8888
20.6663       239700       15.8855
20.6749       239800       15.8822
20.6835       239900       15.8789
20.6922       240000       15.8756
20.7008       240100       15.8723
20.7094       240200       15.869
20.718       240300       15.8657
20.7267       240400       15.8624
20.7353       240500       15.8591
20.7439       240600       15.8558
20.7525       240700       15.8525
20.7611       240800       15.8492
20.7698       240900       15.8459
20.7784       241000       15.8426
20.787       241100       15.8393
20.7956       241200       15.836
20.8043       241300       15.8327
20.8129       241400       15.8295
20.8215       241500       15.8262
20.8301       241600       15.8229
20.8387       241700       15.8196
20.8474       241800       15.8164
20.856       241900       15.8131
20.8646       242000       15.8098
20.8732       242100       15.8066
20.8818       242200       15.8033
20.8905       242300       15.8
20.8991       242400       15.7968
20.9077       242500       15.7935
20.9163       242600       15.7903
20.925       242700       15.787
20.9336       242800       15.7838
20.9422       242900       15.7805
20.9508       243000       15.7773
20.9594       243100       15.774
20.9681       243200       15.7708
20.9767       243300       15.7675
20.9853       243400       15.7643
20.9939       243500       15.7611
21.0026       243600       15.7578
21.0112       243700       15.7546
21.0198       243800       15.7514
21.0284       243900       15.7481
21.037       244000       15.7449
21.0457       244100       15.7417
21.0543       244200       15.7385
21.0629       244300       15.7352
21.0715       244400       15.732
21.0801       244500       15.7288
21.0888       244600       15.7256
21.0974       244700       15.7224
21.106       244800       15.7192
21.1146       244900       15.7159
21.1233       245000       15.7127
21.1319       245100       15.7095
21.1405       245200       15.7063
21.1491       245300       15.7031
21.1577       245400       15.6999
21.1664       245500       15.6967
21.175       245600       15.6935
21.1836       245700       15.6903
21.1922       245800       15.6871
21.2009       245900       15.684
21.2095       246000       15.6808
21.2181       246100       15.6776
21.2267       246200       15.6744
21.2353       246300       15.6712
21.244       246400       15.668
21.2526       246500       15.6649
21.2612       246600       15.6617
21.2698       246700       15.6585
21.2784       246800       15.6553
21.2871       246900       15.6522
21.2957       247000       15.649
21.3043       247100       15.6458
21.3129       247200       15.6427
21.3216       247300       15.6395
21.3302       247400       15.6363
21.3388       247500       15.6332
21.3474       247600       15.63
21.356       247700       15.6269
21.3647       247800       15.6237
21.3733       247900       15.6206
21.3819       248000       15.6174
21.3905       248100       15.6143
21.3992       248200       15.6111
21.4078       248300       15.608
21.4164       248400       15.6048
21.425       248500       15.6017
21.4336       248600       15.5986
21.4423       248700       15.5954
21.4509       248800       15.5923
21.4595       248900       15.5892
21.4681       249000       15.586
21.4767       249100       15.5829
21.4854       249200       15.5798
21.494       249300       15.5766
21.5026       249400       15.5735
21.5112       249500       15.5704
21.5199       249600       15.5673
21.5285       249700       15.5642
21.5371       249800       15.561
21.5457       249900       15.5579
21.5543       250000       15.5548
21.563       250100       15.5517
21.5716       250200       15.5486
21.5802       250300       15.5455
21.5888       250400       15.5424
21.5975       250500       15.5393
21.6061       250600       15.5362
21.6147       250700       15.5331
21.6233       250800       15.53
21.6319       250900       15.5269
21.6406       251000       15.5238
21.6492       251100       15.5207
21.6578       251200       15.5176
21.6664       251300       15.5145
21.675       251400       15.5114
21.6837       251500       15.5084
21.6923       251600       15.5053
21.7009       251700       15.5022
21.7095       251800       15.4991
21.7182       251900       15.496
21.7268       252000       15.493
21.7354       252100       15.4899
21.744       252200       15.4868
21.7526       252300       15.4838
21.7613       252400       15.4807
21.7699       252500       15.4776
21.7785       252600       15.4746
21.7871       252700       15.4715
21.7958       252800       15.4684
21.8044       252900       15.4654
21.813       253000       15.4623
21.8216       253100       15.4593
21.8302       253200       15.4562
21.8389       253300       15.4532
21.8475       253400       15.4501
21.8561       253500       15.4471
21.8647       253600       15.444
21.8733       253700       15.441
21.882       253800       15.4379
21.8906       253900       15.4349
21.8992       254000       15.4319
21.9078       254100       15.4288
21.9165       254200       15.4258
21.9251       254300       15.4227
21.9337       254400       15.4197
21.9423       254500       15.4167
21.9509       254600       15.4137
21.9596       254700       15.4106
21.9682       254800       15.4076
21.9768       254900       15.4046
21.9854       255000       15.4016
21.9941       255100       15.3985
22.0027       255200       15.3955
22.0113       255300       15.3925
22.0199       255400       15.3895
22.0285       255500       15.3865
22.0372       255600       15.3835
22.0458       255700       15.3805
22.0544       255800       15.3775
22.063       255900       15.3745
22.0716       256000       15.3715
22.0803       256100       15.3685
22.0889       256200       15.3655
22.0975       256300       15.3625
22.1061       256400       15.3595
22.1148       256500       15.3565
22.1234       256600       15.3535
22.132       256700       15.3505
22.1406       256800       15.3475
22.1492       256900       15.3445
22.1579       257000       15.3415
22.1665       257100       15.3385
22.1751       257200       15.3356
22.1837       257300       15.3326
22.1924       257400       15.3296
22.201       257500       15.3266
22.2096       257600       15.3236
22.2182       257700       15.3207
22.2268       257800       15.3177
22.2355       257900       15.3147
22.2441       258000       15.3118
22.2527       258100       15.3088
22.2613       258200       15.3058
22.2699       258300       15.3029
22.2786       258400       15.2999
22.2872       258500       15.2969
22.2958       258600       15.294
22.3044       258700       15.291
22.3131       258800       15.2881
22.3217       258900       15.2851
22.3303       259000       15.2822
22.3389       259100       15.2792
22.3475       259200       15.2763
22.3562       259300       15.2733
22.3648       259400       15.2704
22.3734       259500       15.2674
22.382       259600       15.2645
22.3907       259700       15.2616
22.3993       259800       15.2586
22.4079       259900       15.2557
22.4165       260000       15.2528
22.4251       260100       15.2498
22.4338       260200       15.2469
22.4424       260300       15.244
22.451       260400       15.241
22.4596       260500       15.2381
22.4682       260600       15.2352
22.4769       260700       15.2323
22.4855       260800       15.2293
22.4941       260900       15.2264
22.5027       261000       15.2235
22.5114       261100       15.2206
22.52       261200       15.2177
22.5286       261300       15.2148
22.5372       261400       15.2119
22.5458       261500       15.2089
22.5545       261600       15.206
22.5631       261700       15.2031
22.5717       261800       15.2002
22.5803       261900       15.1973
22.589       262000       15.1944
22.5976       262100       15.1915
22.6062       262200       15.1886
22.6148       262300       15.1857
22.6234       262400       15.1828
22.6321       262500       15.1799
22.6407       262600       15.1771
22.6493       262700       15.1742
22.6579       262800       15.1713
22.6665       262900       15.1684
22.6752       263000       15.1655
22.6838       263100       15.1626
22.6924       263200       15.1597
22.701       263300       15.1569
22.7097       263400       15.154
22.7183       263500       15.1511
22.7269       263600       15.1482
22.7355       263700       15.1454
22.7441       263800       15.1425
22.7528       263900       15.1396
22.7614       264000       15.1368
22.77       264100       15.1339
22.7786       264200       15.131
22.7873       264300       15.1282
22.7959       264400       15.1253
22.8045       264500       15.1224
22.8131       264600       15.1196
22.8217       264700       15.1167
22.8304       264800       15.1139
22.839       264900       15.111
22.8476       265000       15.1082
22.8562       265100       15.1053
22.8648       265200       15.1025
22.8735       265300       15.0996
22.8821       265400       15.0968
22.8907       265500       15.0939
22.8993       265600       15.0911
22.908       265700       15.0883
22.9166       265800       15.0854
22.9252       265900       15.0826
22.9338       266000       15.0798
22.9424       266100       15.0769
22.9511       266200       15.0741
22.9597       266300       15.0713
22.9683       266400       15.0684
22.9769       266500       15.0656
22.9856       266600       15.0628
22.9942       266700       15.0599
23.0028       266800       15.0571
23.0114       266900       15.0543
23.02       267000       15.0515
23.0287       267100       15.0487
23.0373       267200       15.0459
23.0459       267300       15.043
23.0545       267400       15.0402
23.0631       267500       15.0374
23.0718       267600       15.0346
23.0804       267700       15.0318
23.089       267800       15.029
23.0976       267900       15.0262
23.1063       268000       15.0234
23.1149       268100       15.0206
23.1235       268200       15.0178
23.1321       268300       15.015
23.1407       268400       15.0122
23.1494       268500       15.0094
23.158       268600       15.0066
23.1666       268700       15.0038
23.1752       268800       15.001
23.1839       268900       14.9982
23.1925       269000       14.9954
23.2011       269100       14.9926
23.2097       269200       14.9899
23.2183       269300       14.9871
23.227       269400       14.9843
23.2356       269500       14.9815
23.2442       269600       14.9787
23.2528       269700       14.976
23.2614       269800       14.9732
23.2701       269900       14.9704
23.2787       270000       14.9676
23.2873       270100       14.9649
23.2959       270200       14.9621
23.3046       270300       14.9593
23.3132       270400       14.9566
23.3218       270500       14.9538
23.3304       270600       14.951
23.339       270700       14.9483
23.3477       270800       14.9455
23.3563       270900       14.9427
23.3649       271000       14.94
23.3735       271100       14.9372
23.3822       271200       14.9345
23.3908       271300       14.9317
23.3994       271400       14.929
23.408       271500       14.9262
23.4166       271600       14.9235
23.4253       271700       14.9207
23.4339       271800       14.918
23.4425       271900       14.9152
23.4511       272000       14.9125
23.4597       272100       14.9098
23.4684       272200       14.907
23.477       272300       14.9043
23.4856       272400       14.9015
23.4942       272500       14.8988
23.5029       272600       14.8961
23.5115       272700       14.8934
23.5201       272800       14.8906
23.5287       272900       14.8879
23.5373       273000       14.8852
23.546       273100       14.8824
23.5546       273200       14.8797
23.5632       273300       14.877
23.5718       273400       14.8743
23.5805       273500       14.8716
23.5891       273600       14.8688
23.5977       273700       14.8661
23.6063       273800       14.8634
23.6149       273900       14.8607
23.6236       274000       14.858
23.6322       274100       14.8553
23.6408       274200       14.8526
23.6494       274300       14.8499
23.658       274400       14.8471
23.6667       274500       14.8444
23.6753       274600       14.8417
23.6839       274700       14.839
23.6925       274800       14.8363
23.7012       274900       14.8336
23.7098       275000       14.8309
23.7184       275100       14.8282
23.727       275200       14.8255
23.7356       275300       14.8229
23.7443       275400       14.8202
23.7529       275500       14.8175
23.7615       275600       14.8148
23.7701       275700       14.8121
23.7788       275800       14.8094
23.7874       275900       14.8067
23.796       276000       14.804
23.8046       276100       14.8014
23.8132       276200       14.7987
23.8219       276300       14.796
23.8305       276400       14.7933
23.8391       276500       14.7907
23.8477       276600       14.788
23.8563       276700       14.7853
23.865       276800       14.7826
23.8736       276900       14.78
23.8822       277000       14.7773
23.8908       277100       14.7746
23.8995       277200       14.772
23.9081       277300       14.7693
23.9167       277400       14.7666
23.9253       277500       14.764
23.9339       277600       14.7613
23.9426       277700       14.7587
23.9512       277800       14.756
23.9598       277900       14.7534
23.9684       278000       14.7507
23.9771       278100       14.748
23.9857       278200       14.7454
23.9943       278300       14.7427
24.0029       278400       14.7401
24.0115       278500       14.7375
24.0202       278600       14.7348
24.0288       278700       14.7322
24.0374       278800       14.7295
24.046       278900       14.7269
24.0546       279000       14.7242
24.0633       279100       14.7216
24.0719       279200       14.719
24.0805       279300       14.7163
24.0891       279400       14.7137
24.0978       279500       14.7111
24.1064       279600       14.7084
24.115       279700       14.7058
24.1236       279800       14.7032
24.1322       279900       14.7005
24.1409       280000       14.6979
24.1495       280100       14.6953
24.1581       280200       14.6927
24.1667       280300       14.6901
24.1754       280400       14.6874
24.184       280500       14.6848
24.1926       280600       14.6822
24.2012       280700       14.6796
24.2098       280800       14.677
24.2185       280900       14.6744
24.2271       281000       14.6717
24.2357       281100       14.6691
24.2443       281200       14.6665
24.2529       281300       14.6639
24.2616       281400       14.6613
24.2702       281500       14.6587
24.2788       281600       14.6561
24.2874       281700       14.6535
24.2961       281800       14.6509
24.3047       281900       14.6483
24.3133       282000       14.6457
24.3219       282100       14.6431
24.3305       282200       14.6405
24.3392       282300       14.6379
24.3478       282400       14.6353
24.3564       282500       14.6327
24.365       282600       14.6302
24.3737       282700       14.6276
24.3823       282800       14.625
24.3909       282900       14.6224
24.3995       283000       14.6198
24.4081       283100       14.6172
24.4168       283200       14.6146
24.4254       283300       14.6121
24.434       283400       14.6095
24.4426       283500       14.6069
24.4512       283600       14.6043
24.4599       283700       14.6018
24.4685       283800       14.5992
24.4771       283900       14.5966
24.4857       284000       14.594
24.4944       284100       14.5915
24.503       284200       14.5889
24.5116       284300       14.5863
24.5202       284400       14.5838
24.5288       284500       14.5812
24.5375       284600       14.5787
24.5461       284700       14.5761
24.5547       284800       14.5735
24.5633       284900       14.571
24.572       285000       14.5684
24.5806       285100       14.5659
24.5892       285200       14.5633
24.5978       285300       14.5608
24.6064       285400       14.5582
24.6151       285500       14.5557
24.6237       285600       14.5531
24.6323       285700       14.5506
24.6409       285800       14.548
24.6495       285900       14.5455
24.6582       286000       14.5429
24.6668       286100       14.5404
24.6754       286200       14.5378
24.684       286300       14.5353
24.6927       286400       14.5328
24.7013       286500       14.5302
24.7099       286600       14.5277
24.7185       286700       14.5252
24.7271       286800       14.5226
24.7358       286900       14.5201
24.7444       287000       14.5176
24.753       287100       14.515
24.7616       287200       14.5125
24.7703       287300       14.51
24.7789       287400       14.5075
24.7875       287500       14.5049
24.7961       287600       14.5024
24.8047       287700       14.4999
24.8134       287800       14.4974
24.822       287900       14.4949
24.8306       288000       14.4923
24.8392       288100       14.4898
24.8478       288200       14.4873
24.8565       288300       14.4848
24.8651       288400       14.4823
24.8737       288500       14.4798
24.8823       288600       14.4773
24.891       288700       14.4748
24.8996       288800       14.4723
24.9082       288900       14.4698
24.9168       289000       14.4673
24.9254       289100       14.4648
24.9341       289200       14.4622
24.9427       289300       14.4597
24.9513       289400       14.4573
24.9599       289500       14.4548
24.9686       289600       14.4523
24.9772       289700       14.4498
24.9858       289800       14.4473
24.9944       289900       14.4448
25.003       290000       14.4423
25.0117       290100       14.4398
25.0203       290200       14.4373
25.0289       290300       14.4348
25.0375       290400       14.4323
25.0461       290500       14.4299
25.0548       290600       14.4274
25.0634       290700       14.4249
25.072       290800       14.4224
25.0806       290900       14.4199
25.0893       291000       14.4175
25.0979       291100       14.415
25.1065       291200       14.4125
25.1151       291300       14.41
25.1237       291400       14.4076
25.1324       291500       14.4051
25.141       291600       14.4026
25.1496       291700       14.4001
25.1582       291800       14.3977
25.1669       291900       14.3952
25.1755       292000       14.3927
25.1841       292100       14.3903
25.1927       292200       14.3878
25.2013       292300       14.3854
25.21       292400       14.3829
25.2186       292500       14.3804
25.2272       292600       14.378
25.2358       292700       14.3755
25.2444       292800       14.3731
25.2531       292900       14.3706
25.2617       293000       14.3682
25.2703       293100       14.3657
25.2789       293200       14.3633
25.2876       293300       14.3608
25.2962       293400       14.3584
25.3048       293500       14.3559
25.3134       293600       14.3535
25.322       293700       14.351
25.3307       293800       14.3486
25.3393       293900       14.3461
25.3479       294000       14.3437
25.3565       294100       14.3413
25.3652       294200       14.3388
25.3738       294300       14.3364
25.3824       294400       14.334
25.391       294500       14.3315
25.3996       294600       14.3291
25.4083       294700       14.3267
25.4169       294800       14.3242
25.4255       294900       14.3218
25.4341       295000       14.3194
25.4427       295100       14.3169
25.4514       295200       14.3145
25.46       295300       14.3121
25.4686       295400       14.3097
25.4772       295500       14.3073
25.4859       295600       14.3048
25.4945       295700       14.3024
25.5031       295800       14.3
25.5117       295900       14.2976
25.5203       296000       14.2952
25.529       296100       14.2927
25.5376       296200       14.2903
25.5462       296300       14.2879
25.5548       296400       14.2855
25.5635       296500       14.2831
25.5721       296600       14.2807
25.5807       296700       14.2783
25.5893       296800       14.2759
25.5979       296900       14.2735
25.6066       297000       14.2711
25.6152       297100       14.2687
25.6238       297200       14.2663
25.6324       297300       14.2639
25.641       297400       14.2615
25.6497       297500       14.2591
25.6583       297600       14.2567
25.6669       297700       14.2543
25.6755       297800       14.2519
25.6842       297900       14.2495
25.6928       298000       14.2471
25.7014       298100       14.2447
25.71       298200       14.2423
25.7186       298300       14.2399
25.7273       298400       14.2376
25.7359       298500       14.2352
25.7445       298600       14.2328
25.7531       298700       14.2304
25.7618       298800       14.228
25.7704       298900       14.2256
25.779       299000       14.2233
25.7876       299100       14.2209
25.7962       299200       14.2185
25.8049       299300       14.2161
25.8135       299400       14.2138
25.8221       299500       14.2114
25.8307       299600       14.209
25.8393       299700       14.2066
25.848       299800       14.2043
25.8566       299900       14.2019
25.8652       300000       14.1995
25.8738       300100       14.1972
25.8825       300200       14.1948
25.8911       300300       14.1924
25.8997       300400       14.1901
25.9083       300500       14.1877
25.9169       300600       14.1854
25.9256       300700       14.183
25.9342       300800       14.1806
25.9428       300900       14.1783
25.9514       301000       14.1759
25.9601       301100       14.1736
25.9687       301200       14.1712
25.9773       301300       14.1689
25.9859       301400       14.1665
25.9945       301500       14.1642
26.0032       301600       14.1618
26.0118       301700       14.1595
26.0204       301800       14.1571
26.029       301900       14.1548
26.0376       302000       14.1524
26.0463       302100       14.1501
26.0549       302200       14.1478
26.0635       302300       14.1454
26.0721       302400       14.1431
26.0808       302500       14.1407
26.0894       302600       14.1384
26.098       302700       14.1361
26.1066       302800       14.1337
26.1152       302900       14.1314
26.1239       303000       14.1291
26.1325       303100       14.1267
26.1411       303200       14.1244
26.1497       303300       14.1221
26.1584       303400       14.1198
26.167       303500       14.1174
26.1756       303600       14.1151
26.1842       303700       14.1128
26.1928       303800       14.1105
26.2015       303900       14.1081
26.2101       304000       14.1058
26.2187       304100       14.1035
26.2273       304200       14.1012
26.2359       304300       14.0989
26.2446       304400       14.0965
26.2532       304500       14.0942
26.2618       304600       14.0919
26.2704       304700       14.0896
26.2791       304800       14.0873
26.2877       304900       14.085
26.2963       305000       14.0827
26.3049       305100       14.0804
26.3135       305200       14.0781
26.3222       305300       14.0758
26.3308       305400       14.0734
26.3394       305500       14.0711
26.348       305600       14.0688
26.3567       305700       14.0665
26.3653       305800       14.0642
26.3739       305900       14.0619
26.3825       306000       14.0596
26.3911       306100       14.0573
26.3998       306200       14.055
26.4084       306300       14.0528
26.417       306400       14.0505
26.4256       306500       14.0482
26.4342       306600       14.0459
26.4429       306700       14.0436
26.4515       306800       14.0413
26.4601       306900       14.039
26.4687       307000       14.0367
26.4774       307100       14.0344
26.486       307200       14.0322
26.4946       307300       14.0299
26.5032       307400       14.0276
26.5118       307500       14.0253
26.5205       307600       14.023
26.5291       307700       14.0207
26.5377       307800       14.0185
26.5463       307900       14.0162
26.555       308000       14.0139
26.5636       308100       14.0116
26.5722       308200       14.0094
26.5808       308300       14.0071
26.5894       308400       14.0048
26.5981       308500       14.0026
26.6067       308600       14.0003
26.6153       308700       13.998
26.6239       308800       13.9958
26.6325       308900       13.9935
26.6412       309000       13.9912
26.6498       309100       13.989
26.6584       309200       13.9867
26.667       309300       13.9844
26.6757       309400       13.9822
26.6843       309500       13.9799
26.6929       309600       13.9777
26.7015       309700       13.9754
26.7101       309800       13.9731
26.7188       309900       13.9709
26.7274       310000       13.9686
26.736       310100       13.9664
26.7446       310200       13.9641
26.7533       310300       13.9619
26.7619       310400       13.9596
26.7705       310500       13.9574
26.7791       310600       13.9551
26.7877       310700       13.9529
26.7964       310800       13.9507
26.805       310900       13.9484
26.8136       311000       13.9462
26.8222       311100       13.9439
26.8308       311200       13.9417
26.8395       311300       13.9394
26.8481       311400       13.9372
26.8567       311500       13.935
26.8653       311600       13.9327
26.874       311700       13.9305
26.8826       311800       13.9283
26.8912       311900       13.926
26.8998       312000       13.9238
26.9084       312100       13.9216
26.9171       312200       13.9193
26.9257       312300       13.9171
26.9343       312400       13.9149
26.9429       312500       13.9127
26.9516       312600       13.9104
26.9602       312700       13.9082
26.9688       312800       13.906
26.9774       312900       13.9038
26.986       313000       13.9015
26.9947       313100       13.8993
27.0033       313200       13.8971
27.0119       313300       13.8949
27.0205       313400       13.8927
27.0291       313500       13.8904
27.0378       313600       13.8882
27.0464       313700       13.886
27.055       313800       13.8838
27.0636       313900       13.8816
27.0723       314000       13.8794
27.0809       314100       13.8772
27.0895       314200       13.875
27.0981       314300       13.8728
27.1067       314400       13.8706
27.1154       314500       13.8683
27.124       314600       13.8661
27.1326       314700       13.8639
27.1412       314800       13.8617
27.1499       314900       13.8595
27.1585       315000       13.8573
27.1671       315100       13.8551
27.1757       315200       13.8529
27.1843       315300       13.8507
27.193       315400       13.8485
27.2016       315500       13.8463
27.2102       315600       13.8442
27.2188       315700       13.842
27.2274       315800       13.8398
27.2361       315900       13.8376
27.2447       316000       13.8354
27.2533       316100       13.8332
27.2619       316200       13.831
27.2706       316300       13.8288
27.2792       316400       13.8266
27.2878       316500       13.8245
27.2964       316600       13.8223
27.305       316700       13.8201
27.3137       316800       13.8179
27.3223       316900       13.8157
27.3309       317000       13.8136
27.3395       317100       13.8114
27.3482       317200       13.8092
27.3568       317300       13.807
27.3654       317400       13.8048
27.374       317500       13.8027
27.3826       317600       13.8005
27.3913       317700       13.7983
27.3999       317800       13.7962
27.4085       317900       13.794
27.4171       318000       13.7918
27.4257       318100       13.7896
27.4344       318200       13.7875
27.443       318300       13.7853
27.4516       318400       13.7831
27.4602       318500       13.781
27.4689       318600       13.7788
27.4775       318700       13.7767
27.4861       318800       13.7745
27.4947       318900       13.7723
27.5033       319000       13.7702
27.512       319100       13.768
27.5206       319200       13.7659
27.5292       319300       13.7637
27.5378       319400       13.7616
27.5465       319500       13.7594
27.5551       319600       13.7572
27.5637       319700       13.7551
27.5723       319800       13.7529
27.5809       319900       13.7508
27.5896       320000       13.7486
27.5982       320100       13.7465
27.6068       320200       13.7444
27.6154       320300       13.7422
27.624       320400       13.7401
27.6327       320500       13.7379
27.6413       320600       13.7358
27.6499       320700       13.7336
27.6585       320800       13.7315
27.6672       320900       13.7294
27.6758       321000       13.7272
27.6844       321100       13.7251
27.693       321200       13.7229
27.7016       321300       13.7208
27.7103       321400       13.7187
27.7189       321500       13.7165
27.7275       321600       13.7144
27.7361       321700       13.7123
27.7448       321800       13.7101
27.7534       321900       13.708
27.762       322000       13.7059
27.7706       322100       13.7038
27.7792       322200       13.7016
27.7879       322300       13.6995
27.7965       322400       13.6974
27.8051       322500       13.6953
27.8137       322600       13.6931
27.8223       322700       13.691
27.831       322800       13.6889
27.8396       322900       13.6868
27.8482       323000       13.6847
27.8568       323100       13.6825
27.8655       323200       13.6804
27.8741       323300       13.6783
27.8827       323400       13.6762
27.8913       323500       13.6741
27.8999       323600       13.672
27.9086       323700       13.6698
27.9172       323800       13.6677
27.9258       323900       13.6656
27.9344       324000       13.6635
27.9431       324100       13.6614
27.9517       324200       13.6593
27.9603       324300       13.6572
27.9689       324400       13.6551
27.9775       324500       13.653
27.9862       324600       13.6509
27.9948       324700       13.6488
28.0034       324800       13.6467
28.012       324900       13.6446
28.0206       325000       13.6425
28.0293       325100       13.6404
28.0379       325200       13.6383
28.0465       325300       13.6362
28.0551       325400       13.6341
28.0638       325500       13.632
28.0724       325600       13.6299
28.081       325700       13.6278
28.0896       325800       13.6257
28.0982       325900       13.6236
28.1069       326000       13.6215
28.1155       326100       13.6195
28.1241       326200       13.6174
28.1327       326300       13.6153
28.1414       326400       13.6132
28.15       326500       13.6111
28.1586       326600       13.609
28.1672       326700       13.6069
28.1758       326800       13.6049
28.1845       326900       13.6028
28.1931       327000       13.6007
28.2017       327100       13.5986
28.2103       327200       13.5965
28.2189       327300       13.5945
28.2276       327400       13.5924
28.2362       327500       13.5903
28.2448       327600       13.5882
28.2534       327700       13.5862
28.2621       327800       13.5841
28.2707       327900       13.582
28.2793       328000       13.5799
28.2879       328100       13.5779
28.2965       328200       13.5758
28.3052       328300       13.5737
28.3138       328400       13.5717
28.3224       328500       13.5696
28.331       328600       13.5675
28.3397       328700       13.5655
28.3483       328800       13.5634
28.3569       328900       13.5614
28.3655       329000       13.5593
28.3741       329100       13.5572
28.3828       329200       13.5552
28.3914       329300       13.5531
28.4       329400       13.5511
28.4086       329500       13.549
28.4172       329600       13.5469
28.4259       329700       13.5449
28.4345       329800       13.5428
28.4431       329900       13.5408
28.4517       330000       13.5387
28.4604       330100       13.5367
28.469       330200       13.5346
28.4776       330300       13.5326
28.4862       330400       13.5305
28.4948       330500       13.5285
28.5035       330600       13.5264
28.5121       330700       13.5244
28.5207       330800       13.5224
28.5293       330900       13.5203
28.538       331000       13.5183
28.5466       331100       13.5162
28.5552       331200       13.5142
28.5638       331300       13.5121
28.5724       331400       13.5101
28.5811       331500       13.5081
28.5897       331600       13.506
28.5983       331700       13.504
28.6069       331800       13.502
28.6155       331900       13.4999
28.6242       332000       13.4979
28.6328       332100       13.4959
28.6414       332200       13.4938
28.65       332300       13.4918
28.6587       332400       13.4898
28.6673       332500       13.4877
28.6759       332600       13.4857
28.6845       332700       13.4837
28.6931       332800       13.4817
28.7018       332900       13.4796
28.7104       333000       13.4776
28.719       333100       13.4756
28.7276       333200       13.4736
28.7363       333300       13.4715
28.7449       333400       13.4695
28.7535       333500       13.4675
28.7621       333600       13.4655
28.7707       333700       13.4635
28.7794       333800       13.4614
28.788       333900       13.4594
28.7966       334000       13.4574
28.8052       334100       13.4554
28.8138       334200       13.4534
28.8225       334300       13.4514
28.8311       334400       13.4494
28.8397       334500       13.4474
28.8483       334600       13.4453
28.857       334700       13.4433
28.8656       334800       13.4413
28.8742       334900       13.4393
28.8828       335000       13.4373
28.8914       335100       13.4353
28.9001       335200       13.4333
28.9087       335300       13.4313
28.9173       335400       13.4293
28.9259       335500       13.4273
28.9346       335600       13.4253
28.9432       335700       13.4233
28.9518       335800       13.4213
28.9604       335900       13.4193
28.969       336000       13.4173
28.9777       336100       13.4153
28.9863       336200       13.4133
28.9949       336300       13.4113
29.0035       336400       13.4093
29.0121       336500       13.4073
29.0208       336600       13.4053
29.0294       336700       13.4034
29.038       336800       13.4014
29.0466       336900       13.3994
29.0553       337000       13.3974
29.0639       337100       13.3954
29.0725       337200       13.3934
29.0811       337300       13.3914
29.0897       337400       13.3894
29.0984       337500       13.3875
29.107       337600       13.3855
29.1156       337700       13.3835
29.1242       337800       13.3815
29.1329       337900       13.3795
29.1415       338000       13.3776
29.1501       338100       13.3756
29.1587       338200       13.3736
29.1673       338300       13.3716
29.176       338400       13.3696
29.1846       338500       13.3677
29.1932       338600       13.3657
29.2018       338700       13.3637
29.2104       338800       13.3617
29.2191       338900       13.3598
29.2277       339000       13.3578
29.2363       339100       13.3558
29.2449       339200       13.3539
29.2536       339300       13.3519
29.2622       339400       13.3499
29.2708       339500       13.348
29.2794       339600       13.346
29.288       339700       13.344
29.2967       339800       13.3421
29.3053       339900       13.3401
29.3139       340000       13.3381
29.3225       340100       13.3362
29.3312       340200       13.3342
29.3398       340300       13.3323
29.3484       340400       13.3303
29.357       340500       13.3284
29.3656       340600       13.3264
29.3743       340700       13.3244
29.3829       340800       13.3225
29.3915       340900       13.3205
29.4001       341000       13.3186
29.4087       341100       13.3166
29.4174       341200       13.3147
29.426       341300       13.3127
29.4346       341400       13.3108
29.4432       341500       13.3088
29.4519       341600       13.3069
29.4605       341700       13.3049
29.4691       341800       13.303
29.4777       341900       13.301
29.4863       342000       13.2991
29.495       342100       13.2971
29.5036       342200       13.2952
29.5122       342300       13.2933
29.5208       342400       13.2913
29.5295       342500       13.2894
29.5381       342600       13.2874
29.5467       342700       13.2855
29.5553       342800       13.2836
29.5639       342900       13.2816
29.5726       343000       13.2797
29.5812       343100       13.2778
29.5898       343200       13.2758
29.5984       343300       13.2739
29.607       343400       13.272
29.6157       343500       13.27
29.6243       343600       13.2681
29.6329       343700       13.2662
29.6415       343800       13.2642
29.6502       343900       13.2623
29.6588       344000       13.2604
29.6674       344100       13.2584
29.676       344200       13.2565
29.6846       344300       13.2546
29.6933       344400       13.2527
29.7019       344500       13.2507
29.7105       344600       13.2488
29.7191       344700       13.2469
29.7278       344800       13.245
29.7364       344900       13.2431
29.745       345000       13.2411
29.7536       345100       13.2392
29.7622       345200       13.2373
29.7709       345300       13.2354
29.7795       345400       13.2335
29.7881       345500       13.2316
29.7967       345600       13.2296
29.8053       345700       13.2277
29.814       345800       13.2258
29.8226       345900       13.2239
29.8312       346000       13.222
29.8398       346100       13.2201
29.8485       346200       13.2182
29.8571       346300       13.2163
29.8657       346400       13.2144
29.8743       346500       13.2125
29.8829       346600       13.2105
29.8916       346700       13.2086
29.9002       346800       13.2067
29.9088       346900       13.2048
29.9174       347000       13.2029
29.9261       347100       13.201
29.9347       347200       13.1991
29.9433       347300       13.1972
29.9519       347400       13.1953
29.9605       347500       13.1934
29.9692       347600       13.1915
29.9778       347700       13.1896
29.9864       347800       13.1877
29.995       347900       13.1858
30.0036       348000       13.1839
30.0123       348100       13.1821
30.0209       348200       13.1802
30.0295       348300       13.1783
30.0381       348400       13.1764
30.0468       348500       13.1745
30.0554       348600       13.1726
30.064       348700       13.1707
30.0726       348800       13.1688
30.0812       348900       13.1669
30.0899       349000       13.165
30.0985       349100       13.1632
30.1071       349200       13.1613
30.1157       349300       13.1594
30.1244       349400       13.1575
30.133       349500       13.1556
30.1416       349600       13.1537
30.1502       349700       13.1519
30.1588       349800       13.15
30.1675       349900       13.1481
30.1761       350000       13.1462
30.1847       350100       13.1443
30.1933       350200       13.1425
30.2019       350300       13.1406
30.2106       350400       13.1387
30.2192       350500       13.1368
30.2278       350600       13.135
30.2364       350700       13.1331
30.2451       350800       13.1312
30.2537       350900       13.1294
30.2623       351000       13.1275
30.2709       351100       13.1256
30.2795       351200       13.1237
30.2882       351300       13.1219
30.2968       351400       13.12
30.3054       351500       13.1181
30.314       351600       13.1163
30.3227       351700       13.1144
30.3313       351800       13.1125
30.3399       351900       13.1107
30.3485       352000       13.1088
30.3571       352100       13.107
30.3658       352200       13.1051
30.3744       352300       13.1032
30.383       352400       13.1014
30.3916       352500       13.0995
30.4002       352600       13.0977
30.4089       352700       13.0958
30.4175       352800       13.094
30.4261       352900       13.0921
30.4347       353000       13.0902
30.4434       353100       13.0884
30.452       353200       13.0865
30.4606       353300       13.0847
30.4692       353400       13.0828
30.4778       353500       13.081
30.4865       353600       13.0791
30.4951       353700       13.0773
30.5037       353800       13.0754
30.5123       353900       13.0736
30.521       354000       13.0717
30.5296       354100       13.0699
30.5382       354200       13.068
30.5468       354300       13.0662
30.5554       354400       13.0644
30.5641       354500       13.0625
30.5727       354600       13.0607
30.5813       354700       13.0588
30.5899       354800       13.057
30.5985       354900       13.0552
30.6072       355000       13.0533
30.6158       355100       13.0515
30.6244       355200       13.0496
30.633       355300       13.0478
30.6417       355400       13.046
30.6503       355500       13.0441
30.6589       355600       13.0423
30.6675       355700       13.0405
30.6761       355800       13.0386
30.6848       355900       13.0368
30.6934       356000       13.035
30.702       356100       13.0331
30.7106       356200       13.0313
30.7193       356300       13.0295
30.7279       356400       13.0277
30.7365       356500       13.0258
30.7451       356600       13.024
30.7537       356700       13.0222
30.7624       356800       13.0203
30.771       356900       13.0185
30.7796       357000       13.0167
30.7882       357100       13.0149
30.7968       357200       13.0131
30.8055       357300       13.0112
30.8141       357400       13.0094
30.8227       357500       13.0076
30.8313       357600       13.0058
30.84       357700       13.004
30.8486       357800       13.0021
30.8572       357900       13.0003
30.8658       358000       12.9985
30.8744       358100       12.9967
30.8831       358200       12.9949
30.8917       358300       12.9931
30.9003       358400       12.9913
30.9089       358500       12.9894
30.9176       358600       12.9876
30.9262       358700       12.9858
30.9348       358800       12.984
30.9434       358900       12.9822
30.952       359000       12.9804
30.9607       359100       12.9786
30.9693       359200       12.9768
30.9779       359300       12.975
30.9865       359400       12.9732
30.9951       359500       12.9714
31.0038       359600       12.9696
31.0124       359700       12.9678
31.021       359800       12.966
31.0296       359900       12.9642
31.0383       360000       12.9623
31.0469       360100       12.9605
31.0555       360200       12.9588
31.0641       360300       12.957
31.0727       360400       12.9552
31.0814       360500       12.9534
31.09       360600       12.9516
31.0986       360700       12.9498
31.1072       360800       12.948
31.1159       360900       12.9462
31.1245       361000       12.9444
31.1331       361100       12.9426
31.1417       361200       12.9408
31.1503       361300       12.939
31.159       361400       12.9372
31.1676       361500       12.9354
31.1762       361600       12.9336
31.1848       361700       12.9319
31.1934       361800       12.9301
31.2021       361900       12.9283
31.2107       362000       12.9265
31.2193       362100       12.9247
31.2279       362200       12.9229
31.2366       362300       12.9211
31.2452       362400       12.9194
31.2538       362500       12.9176
31.2624       362600       12.9158
31.271       362700       12.914
31.2797       362800       12.9122
31.2883       362900       12.9105
31.2969       363000       12.9087
31.3055       363100       12.9069
31.3142       363200       12.9051
31.3228       363300       12.9033
31.3314       363400       12.9016
31.34       363500       12.8998
31.3486       363600       12.898
31.3573       363700       12.8962
31.3659       363800       12.8945
31.3745       363900       12.8927
31.3831       364000       12.8909
31.3917       364100       12.8892
31.4004       364200       12.8874
31.409       364300       12.8856
31.4176       364400       12.8839
31.4262       364500       12.8821
31.4349       364600       12.8803
31.4435       364700       12.8786
31.4521       364800       12.8768
31.4607       364900       12.875
31.4693       365000       12.8733
31.478       365100       12.8715
31.4866       365200       12.8697
31.4952       365300       12.868
31.5038       365400       12.8662
31.5125       365500       12.8645
31.5211       365600       12.8627
31.5297       365700       12.8609
31.5383       365800       12.8592
31.5469       365900       12.8574
31.5556       366000       12.8557
31.5642       366100       12.8539
31.5728       366200       12.8522
31.5814       366300       12.8504
31.59       366400       12.8486
31.5987       366500       12.8469
31.6073       366600       12.8451
31.6159       366700       12.8434
31.6245       366800       12.8416
31.6332       366900       12.8399
31.6418       367000       12.8381
31.6504       367100       12.8364
31.659       367200       12.8346
31.6676       367300       12.8329
31.6763       367400       12.8311
31.6849       367500       12.8294
31.6935       367600       12.8277
31.7021       367700       12.8259
31.7108       367800       12.8242
31.7194       367900       12.8224
31.728       368000       12.8207
31.7366       368100       12.8189
31.7452       368200       12.8172
31.7539       368300       12.8155
31.7625       368400       12.8137
31.7711       368500       12.812
31.7797       368600       12.8102
31.7883       368700       12.8085
31.797       368800       12.8068
31.8056       368900       12.805
31.8142       369000       12.8033
31.8228       369100       12.8016
31.8315       369200       12.7998
31.8401       369300       12.7981
31.8487       369400       12.7964
31.8573       369500       12.7946
31.8659       369600       12.7929
31.8746       369700       12.7912
31.8832       369800       12.7894
31.8918       369900       12.7877
31.9004       370000       12.786
31.9091       370100       12.7843
31.9177       370200       12.7825
31.9263       370300       12.7808
31.9349       370400       12.7791
31.9435       370500       12.7774
31.9522       370600       12.7756
31.9608       370700       12.7739
31.9694       370800       12.7722
31.978       370900       12.7705
31.9866       371000       12.7687
31.9953       371100       12.767
32.0039       371200       12.7653
32.0125       371300       12.7636
32.0211       371400       12.7619
32.0298       371500       12.7601
32.0384       371600       12.7584
32.047       371700       12.7567
32.0556       371800       12.755
32.0642       371900       12.7533
32.0729       372000       12.7516
32.0815       372100       12.7499
32.0901       372200       12.7481
32.0987       372300       12.7464
32.1074       372400       12.7447
32.116       372500       12.743
32.1246       372600       12.7413
32.1332       372700       12.7396
32.1418       372800       12.7379
32.1505       372900       12.7362
32.1591       373000       12.7345
32.1677       373100       12.7328
32.1763       373200       12.731
32.1849       373300       12.7293
32.1936       373400       12.7276
32.2022       373500       12.7259
32.2108       373600       12.7242
32.2194       373700       12.7225
32.2281       373800       12.7208
32.2367       373900       12.7191
32.2453       374000       12.7174
32.2539       374100       12.7157
32.2625       374200       12.714
32.2712       374300       12.7123
32.2798       374400       12.7106
32.2884       374500       12.7089
32.297       374600       12.7072
32.3057       374700       12.7055
32.3143       374800       12.7038
32.3229       374900       12.7022
32.3315       375000       12.7005
32.3401       375100       12.6988
32.3488       375200       12.6971
32.3574       375300       12.6954
32.366       375400       12.6937
32.3746       375500       12.692
32.3832       375600       12.6903
32.3919       375700       12.6886
32.4005       375800       12.6869
32.4091       375900       12.6852
32.4177       376000       12.6836
32.4264       376100       12.6819
32.435       376200       12.6802
32.4436       376300       12.6785
32.4522       376400       12.6768
32.4608       376500       12.6751
32.4695       376600       12.6734
32.4781       376700       12.6718
32.4867       376800       12.6701
32.4953       376900       12.6684
32.504       377000       12.6667
32.5126       377100       12.665
32.5212       377200       12.6634
32.5298       377300       12.6617
32.5384       377400       12.66
32.5471       377500       12.6583
32.5557       377600       12.6567
32.5643       377700       12.655
32.5729       377800       12.6533
32.5815       377900       12.6516
32.5902       378000       12.65
32.5988       378100       12.6483
32.6074       378200       12.6466
32.616       378300       12.6449
32.6247       378400       12.6433
32.6333       378500       12.6416
32.6419       378600       12.6399
32.6505       378700       12.6383
32.6591       378800       12.6366
32.6678       378900       12.6349
32.6764       379000       12.6333
32.685       379100       12.6316
32.6936       379200       12.6299
32.7023       379300       12.6283
32.7109       379400       12.6266
32.7195       379500       12.6249
32.7281       379600       12.6233
32.7367       379700       12.6216
32.7454       379800       12.6199
32.754       379900       12.6183
32.7626       380000       12.6166
32.7712       380100       12.615
32.7798       380200       12.6133
32.7885       380300       12.6116
32.7971       380400       12.61
32.8057       380500       12.6083
32.8143       380600       12.6067
32.823       380700       12.605
32.8316       380800       12.6034
32.8402       380900       12.6017
32.8488       381000       12.6001
32.8574       381100       12.5984
32.8661       381200       12.5968
32.8747       381300       12.5951
32.8833       381400       12.5934
32.8919       381500       12.5918
32.9006       381600       12.5901
32.9092       381700       12.5885
32.9178       381800       12.5868
32.9264       381900       12.5852
32.935       382000       12.5836
32.9437       382100       12.5819
32.9523       382200       12.5803
32.9609       382300       12.5786
32.9695       382400       12.577
32.9781       382500       12.5753
32.9868       382600       12.5737
32.9954       382700       12.572
33.004       382800       12.5704
33.0126       382900       12.5688
33.0213       383000       12.5671
33.0299       383100       12.5655
33.0385       383200       12.5638
33.0471       383300       12.5622
33.0557       383400       12.5606
33.0644       383500       12.5589
33.073       383600       12.5573
33.0816       383700       12.5556
33.0902       383800       12.554
33.0989       383900       12.5524
33.1075       384000       12.5507
33.1161       384100       12.5491
33.1247       384200       12.5475
33.1333       384300       12.5458
33.142       384400       12.5442
33.1506       384500       12.5426
33.1592       384600       12.5409
33.1678       384700       12.5393
33.1764       384800       12.5377
33.1851       384900       12.5361
33.1937       385000       12.5344
33.2023       385100       12.5328
33.2109       385200       12.5312
33.2196       385300       12.5296
33.2282       385400       12.5279
33.2368       385500       12.5263
33.2454       385600       12.5247
33.254       385700       12.5231
33.2627       385800       12.5214
33.2713       385900       12.5198
33.2799       386000       12.5182
33.2885       386100       12.5166
33.2972       386200       12.5149
33.3058       386300       12.5133
33.3144       386400       12.5117
33.323       386500       12.5101
33.3316       386600       12.5085
33.3403       386700       12.5068
33.3489       386800       12.5052
33.3575       386900       12.5036
33.3661       387000       12.502
33.3747       387100       12.5004
33.3834       387200       12.4988
33.392       387300       12.4972
33.4006       387400       12.4955
33.4092       387500       12.4939
33.4179       387600       12.4923
33.4265       387700       12.4907
33.4351       387800       12.4891
33.4437       387900       12.4875
33.4523       388000       12.4859
33.461       388100       12.4843
33.4696       388200       12.4827
33.4782       388300       12.4811
33.4868       388400       12.4794
33.4955       388500       12.4778
33.5041       388600       12.4762
33.5127       388700       12.4746
33.5213       388800       12.473
33.5299       388900       12.4714
33.5386       389000       12.4698
33.5472       389100       12.4682
33.5558       389200       12.4666
33.5644       389300       12.465
33.573       389400       12.4634
33.5817       389500       12.4618
33.5903       389600       12.4602
33.5989       389700       12.4586
33.6075       389800       12.457
33.6162       389900       12.4554
33.6248       390000       12.4538
33.6334       390100       12.4522
33.642       390200       12.4506
33.6506       390300       12.449
33.6593       390400       12.4474
33.6679       390500       12.4458
33.6765       390600       12.4443
33.6851       390700       12.4427
33.6938       390800       12.4411
33.7024       390900       12.4395
33.711       391000       12.4379
33.7196       391100       12.4363
33.7282       391200       12.4347
33.7369       391300       12.4331
33.7455       391400       12.4315
33.7541       391500       12.4299
33.7627       391600       12.4284
33.7713       391700       12.4268
33.78       391800       12.4252
33.7886       391900       12.4236
33.7972       392000       12.422
33.8058       392100       12.4204
33.8145       392200       12.4188
33.8231       392300       12.4173
33.8317       392400       12.4157
33.8403       392500       12.4141
33.8489       392600       12.4125
33.8576       392700       12.4109
33.8662       392800       12.4094
33.8748       392900       12.4078
33.8834       393000       12.4062
33.8921       393100       12.4046
33.9007       393200       12.403
33.9093       393300       12.4015
33.9179       393400       12.3999
33.9265       393500       12.3983
33.9352       393600       12.3967
33.9438       393700       12.3952
33.9524       393800       12.3936
33.961       393900       12.392
33.9696       394000       12.3904
33.9783       394100       12.3889
33.9869       394200       12.3873
33.9955       394300       12.3857
34.0041       394400       12.3842
34.0128       394500       12.3826
34.0214       394600       12.381
34.03       394700       12.3795
34.0386       394800       12.3779
34.0472       394900       12.3763
34.0559       395000       12.3747
34.0645       395100       12.3732
34.0731       395200       12.3716
34.0817       395300       12.3701
34.0904       395400       12.3685
34.099       395500       12.3669
34.1076       395600       12.3654
34.1162       395700       12.3638
34.1248       395800       12.3622
34.1335       395900       12.3607
34.1421       396000       12.3591
34.1507       396100       12.3576
34.1593       396200       12.356
34.1679       396300       12.3544
34.1766       396400       12.3529
34.1852       396500       12.3513
34.1938       396600       12.3498
34.2024       396700       12.3482
34.2111       396800       12.3467
34.2197       396900       12.3451
34.2283       397000       12.3435
34.2369       397100       12.342
34.2455       397200       12.3404
34.2542       397300       12.3389
34.2628       397400       12.3373
34.2714       397500       12.3358
34.28       397600       12.3342
34.2887       397700       12.3327
34.2973       397800       12.3311
34.3059       397900       12.3296
34.3145       398000       12.328
34.3231       398100       12.3265
34.3318       398200       12.3249
34.3404       398300       12.3234
34.349       398400       12.3218
34.3576       398500       12.3203
34.3662       398600       12.3187
34.3749       398700       12.3172
34.3835       398800       12.3157
34.3921       398900       12.3141
34.4007       399000       12.3126
34.4094       399100       12.311
34.418       399200       12.3095
34.4266       399300       12.3079
34.4352       399400       12.3064
34.4438       399500       12.3049
34.4525       399600       12.3033
34.4611       399700       12.3018
34.4697       399800       12.3002
34.4783       399900       12.2987
34.487       400000       12.2972
