; The collision integrals Q_{i,j}^{11} are exponential fit function obtained from 
; Transport properties of high-temperature Jupiter atmosphere components, D. Bruno, C. Catalfamo, M. Capitelli, G. Colonna, O. De Pascale et al., Phys. Plasmas 17, 112315 (2010), doi: 10.1063/1.3495980, Published by the American Institute of Physics
; 
; 
; To obtain these collision integrals, the original data (transport cross section Q^l_{i,j} or elastic collision differential cross section) are obtained from:
;
; 1) R. D. Rundel, D. E. Nitz, K. A. Smith, M. W. Geis, and R. F. Stebbings, Phys. Rev. A 19, 33 1979.
;
; 1 atomic unit of square distance = 2.80e-17 cm^2
; 1eV = 11604K

2.80e-17


;        E             T             Q11
;       (eV)         (K)         (a.u.)

0.0862174       1000       247.433
0.0948391       1100       244.069
0.103461       1200       241.023
0.112083       1300       238.243
0.120704       1400       235.686
0.129326       1500       233.321
0.137948       1600       231.122
0.14657       1700       229.067
0.155191       1800       227.14
0.163813       1900       225.324
0.172435       2000       223.61
0.181056       2100       221.985
0.189678       2200       220.441
0.1983       2300       218.971
0.206922       2400       217.568
0.215543       2500       216.227
0.224165       2600       214.941
0.232787       2700       213.708
0.241409       2800       212.522
0.25003       2900       211.381
0.258652       3000       210.281
0.267274       3100       209.219
0.275896       3200       208.194
0.284517       3300       207.202
0.293139       3400       206.242
0.301761       3500       205.311
0.310383       3600       204.409
0.319004       3700       203.534
0.327626       3800       202.684
0.336248       3900       201.857
0.34487       4000       201.053
0.353491       4100       200.271
0.362113       4200       199.51
0.370735       4300       198.768
0.379356       4400       198.044
0.387978       4500       197.339
0.3966       4600       196.651
0.405222       4700       195.979
0.413843       4800       195.323
0.422465       4900       194.682
0.431087       5000       194.056
0.439709       5100       193.443
0.44833       5200       192.844
0.456952       5300       192.258
0.465574       5400       191.685
0.474196       5500       191.123
0.482817       5600       190.574
0.491439       5700       190.035
0.500061       5800       189.507
0.508683       5900       188.99
0.517304       6000       188.483
0.525926       6100       187.986
0.534548       6200       187.498
0.543169       6300       187.02
0.551791       6400       186.55
0.560413       6500       186.089
0.569035       6600       185.637
0.577656       6700       185.192
0.586278       6800       184.756
0.5949       6900       184.327
0.603522       7000       183.905
0.612143       7100       183.491
0.620765       7200       183.084
0.629387       7300       182.684
0.638009       7400       182.29
0.64663       7500       181.903
0.655252       7600       181.522
0.663874       7700       181.147
0.672496       7800       180.778
0.681117       7900       180.415
0.689739       8000       180.057
0.698361       8100       179.705
0.706983       8200       179.358
0.715604       8300       179.017
0.724226       8400       178.68
0.732848       8500       178.349
0.741469       8600       178.022
0.750091       8700       177.7
0.758713       8800       177.383
0.767335       8900       177.07
0.775956       9000       176.762
0.784578       9100       176.457
0.7932       9200       176.157
0.801822       9300       175.861
0.810443       9400       175.569
0.819065       9500       175.281
0.827687       9600       174.996
0.836309       9700       174.716
0.84493       9800       174.438
0.853552       9900       174.165
0.862174       10000       173.895
0.870796       10100       173.628
0.879417       10200       173.364
0.888039       10300       173.104
0.896661       10400       172.847
0.905282       10500       172.593
0.913904       10600       172.342
0.922526       10700       172.094
0.931148       10800       171.849
0.939769       10900       171.607
0.948391       11000       171.367
0.957013       11100       171.13
0.965635       11200       170.896
0.974256       11300       170.665
0.982878       11400       170.436
0.9915       11500       170.209
1.00012       11600       169.985
1.00874       11700       169.764
1.01737       11800       169.544
1.02599       11900       169.327
1.03461       12000       169.113
1.04323       12100       168.9
1.05185       12200       168.69
1.06047       12300       168.482
1.0691       12400       168.276
1.07772       12500       168.072
1.08634       12600       167.87
1.09496       12700       167.67
1.10358       12800       167.472
1.1122       12900       167.276
1.12083       13000       167.082
1.12945       13100       166.89
1.13807       13200       166.699
1.14669       13300       166.51
1.15531       13400       166.323
1.16393       13500       166.138
1.17256       13600       165.955
1.18118       13700       165.773
1.1898       13800       165.592
1.19842       13900       165.414
1.20704       14000       165.237
1.21567       14100       165.061
1.22429       14200       164.887
1.23291       14300       164.715
1.24153       14400       164.544
1.25015       14500       164.374
1.25877       14600       164.206
1.2674       14700       164.039
1.27602       14800       163.874
1.28464       14900       163.71
1.29326       15000       163.547
1.30188       15100       163.386
1.3105       15200       163.226
1.31913       15300       163.067
1.32775       15400       162.91
1.33637       15500       162.753
1.34499       15600       162.599
1.35361       15700       162.445
1.36223       15800       162.292
1.37086       15900       162.141
1.37948       16000       161.99
1.3881       16100       161.841
1.39672       16200       161.693
1.40534       16300       161.546
1.41397       16400       161.401
1.42259       16500       161.256
1.43121       16600       161.112
1.43983       16700       160.969
1.44845       16800       160.828
1.45707       16900       160.687
1.4657       17000       160.548
1.47432       17100       160.409
1.48294       17200       160.271
1.49156       17300       160.135
1.50018       17400       159.999
1.5088       17500       159.864
1.51743       17600       159.73
1.52605       17700       159.597
1.53467       17800       159.465
1.54329       17900       159.334
1.55191       18000       159.204
1.56053       18100       159.074
1.56916       18200       158.946
1.57778       18300       158.818
1.5864       18400       158.691
1.59502       18500       158.565
1.60364       18600       158.44
1.61227       18700       158.315
1.62089       18800       158.192
1.62951       18900       158.069
1.63813       19000       157.947
1.64675       19100       157.825
1.65537       19200       157.705
1.664       19300       157.585
1.67262       19400       157.466
1.68124       19500       157.347
1.68986       19600       157.23
1.69848       19700       157.113
1.7071       19800       156.996
1.71573       19900       156.881
1.72435       20000       156.766
1.73297       20100       156.652
1.74159       20200       156.538
1.75021       20300       156.425
1.75883       20400       156.313
1.76746       20500       156.201
1.77608       20600       156.09
1.7847       20700       155.98
1.79332       20800       155.87
1.80194       20900       155.761
1.81056       21000       155.653
1.81919       21100       155.545
1.82781       21200       155.438
1.83643       21300       155.331
1.84505       21400       155.225
1.85367       21500       155.119
1.8623       21600       155.015
1.87092       21700       154.91
1.87954       21800       154.806
1.88816       21900       154.703
1.89678       22000       154.6
1.9054       22100       154.498
1.91403       22200       154.397
1.92265       22300       154.296
1.93127       22400       154.195
1.93989       22500       154.095
1.94851       22600       153.996
1.95713       22700       153.897
1.96576       22800       153.798
1.97438       22900       153.7
1.983       23000       153.603
1.99162       23100       153.506
2.00024       23200       153.409
2.00886       23300       153.313
2.01749       23400       153.218
2.02611       23500       153.123
2.03473       23600       153.028
2.04335       23700       152.934
2.05197       23800       152.84
2.0606       23900       152.747
2.06922       24000       152.654
2.07784       24100       152.562
2.08646       24200       152.47
2.09508       24300       152.378
2.1037       24400       152.287
2.11233       24500       152.197
2.12095       24600       152.107
2.12957       24700       152.017
2.13819       24800       151.928
2.14681       24900       151.839
2.15543       25000       151.75
2.16406       25100       151.662
2.17268       25200       151.574
2.1813       25300       151.487
2.18992       25400       151.4
2.19854       25500       151.314
2.20716       25600       151.228
2.21579       25700       151.142
2.22441       25800       151.057
2.23303       25900       150.972
2.24165       26000       150.887
2.25027       26100       150.803
2.2589       26200       150.719
2.26752       26300       150.636
2.27614       26400       150.553
2.28476       26500       150.47
2.29338       26600       150.388
2.302       26700       150.305
2.31063       26800       150.224
2.31925       26900       150.142
2.32787       27000       150.062
2.33649       27100       149.981
2.34511       27200       149.901
2.35373       27300       149.821
2.36236       27400       149.741
2.37098       27500       149.662
2.3796       27600       149.583
2.38822       27700       149.504
2.39684       27800       149.426
2.40546       27900       149.348
2.41409       28000       149.27
2.42271       28100       149.193
2.43133       28200       149.116
2.43995       28300       149.039
2.44857       28400       148.963
2.4572       28500       148.886
2.46582       28600       148.811
2.47444       28700       148.735
2.48306       28800       148.66
2.49168       28900       148.585
2.5003       29000       148.51
2.50893       29100       148.436
2.51755       29200       148.362
2.52617       29300       148.288
2.53479       29400       148.215
2.54341       29500       148.142
2.55203       29600       148.069
2.56066       29700       147.996
2.56928       29800       147.924
2.5779       29900       147.852
2.58652       30000       147.78
2.59514       30100       147.708
2.60376       30200       147.637
2.61239       30300       147.566
2.62101       30400       147.495
2.62963       30500       147.425
2.63825       30600       147.355
2.64687       30700       147.285
2.6555       30800       147.215
2.66412       30900       147.146
2.67274       31000       147.077
2.68136       31100       147.008
2.68998       31200       146.939
2.6986       31300       146.871
2.70723       31400       146.802
2.71585       31500       146.735
2.72447       31600       146.667
2.73309       31700       146.599
2.74171       31800       146.532
2.75033       31900       146.465
2.75896       32000       146.399
2.76758       32100       146.332
2.7762       32200       146.266
2.78482       32300       146.2
2.79344       32400       146.134
2.80206       32500       146.068
2.81069       32600       146.003
2.81931       32700       145.938
2.82793       32800       145.873
2.83655       32900       145.808
2.84517       33000       145.744
2.8538       33100       145.68
2.86242       33200       145.616
2.87104       33300       145.552
2.87966       33400       145.488
2.88828       33500       145.425
2.8969       33600       145.362
2.90553       33700       145.299
2.91415       33800       145.236
2.92277       33900       145.174
2.93139       34000       145.111
2.94001       34100       145.049
2.94863       34200       144.987
2.95726       34300       144.926
2.96588       34400       144.864
2.9745       34500       144.803
2.98312       34600       144.742
2.99174       34700       144.681
3.00036       34800       144.62
3.00899       34900       144.56
3.01761       35000       144.5
3.02623       35100       144.439
3.03485       35200       144.379
3.04347       35300       144.32
3.0521       35400       144.26
3.06072       35500       144.201
3.06934       35600       144.142
3.07796       35700       144.083
3.08658       35800       144.024
3.0952       35900       143.965
3.10383       36000       143.907
3.11245       36100       143.849
3.12107       36200       143.791
3.12969       36300       143.733
3.13831       36400       143.675
3.14693       36500       143.617
3.15556       36600       143.56
3.16418       36700       143.503
3.1728       36800       143.446
3.18142       36900       143.389
3.19004       37000       143.332
3.19866       37100       143.276
3.20729       37200       143.22
3.21591       37300       143.164
3.22453       37400       143.108
3.23315       37500       143.052
3.24177       37600       142.996
3.2504       37700       142.941
3.25902       37800       142.885
3.26764       37900       142.83
3.27626       38000       142.775
3.28488       38100       142.72
3.2935       38200       142.666
3.30213       38300       142.611
3.31075       38400       142.557
3.31937       38500       142.503
3.32799       38600       142.449
3.33661       38700       142.395
3.34523       38800       142.341
3.35386       38900       142.287
3.36248       39000       142.234
3.3711       39100       142.181
3.37972       39200       142.128
3.38834       39300       142.075
3.39696       39400       142.022
3.40559       39500       141.969
3.41421       39600       141.917
3.42283       39700       141.864
3.43145       39800       141.812
3.44007       39900       141.76
3.4487       40000       141.708
3.45732       40100       141.656
3.46594       40200       141.605
3.47456       40300       141.553
3.48318       40400       141.502
3.4918       40500       141.451
3.50043       40600       141.4
3.50905       40700       141.349
3.51767       40800       141.298
3.52629       40900       141.247
3.53491       41000       141.197
3.54353       41100       141.146
3.55216       41200       141.096
3.56078       41300       141.046
3.5694       41400       140.996
3.57802       41500       140.946
3.58664       41600       140.897
3.59526       41700       140.847
3.60389       41800       140.798
3.61251       41900       140.748
3.62113       42000       140.699
3.62975       42100       140.65
3.63837       42200       140.601
3.647       42300       140.552
3.65562       42400       140.504
3.66424       42500       140.455
3.67286       42600       140.407
3.68148       42700       140.359
3.6901       42800       140.31
3.69873       42900       140.262
3.70735       43000       140.214
3.71597       43100       140.167
3.72459       43200       140.119
3.73321       43300       140.072
3.74183       43400       140.024
3.75046       43500       139.977
3.75908       43600       139.93
3.7677       43700       139.883
3.77632       43800       139.836
3.78494       43900       139.789
3.79356       44000       139.742
3.80219       44100       139.696
3.81081       44200       139.649
3.81943       44300       139.603
3.82805       44400       139.557
3.83667       44500       139.51
3.8453       44600       139.464
3.85392       44700       139.419
3.86254       44800       139.373
3.87116       44900       139.327
3.87978       45000       139.282
3.8884       45100       139.236
3.89703       45200       139.191
3.90565       45300       139.146
3.91427       45400       139.101
3.92289       45500       139.056
3.93151       45600       139.011
3.94013       45700       138.966
3.94876       45800       138.921
3.95738       45900       138.877
3.966       46000       138.832
3.97462       46100       138.788
3.98324       46200       138.744
3.99186       46300       138.7
4.00049       46400       138.656
4.00911       46500       138.612
4.01773       46600       138.568
4.02635       46700       138.524
4.03497       46800       138.481
4.0436       46900       138.437
4.05222       47000       138.394
4.06084       47100       138.35
4.06946       47200       138.307
4.07808       47300       138.264
4.0867       47400       138.221
4.09533       47500       138.178
4.10395       47600       138.135
4.11257       47700       138.093
4.12119       47800       138.05
4.12981       47900       138.008
4.13843       48000       137.965
4.14706       48100       137.923
4.15568       48200       137.881
4.1643       48300       137.839
4.17292       48400       137.797
4.18154       48500       137.755
4.19016       48600       137.713
4.19879       48700       137.671
4.20741       48800       137.63
4.21603       48900       137.588
4.22465       49000       137.547
4.23327       49100       137.505
4.2419       49200       137.464
4.25052       49300       137.423
4.25914       49400       137.382
4.26776       49500       137.341
4.27638       49600       137.3
4.285       49700       137.259
4.29363       49800       137.219
4.30225       49900       137.178
4.31087       50000       137.137
4.31949       50100       137.097
4.32811       50200       137.057
4.33673       50300       137.016
4.34536       50400       136.976
4.35398       50500       136.936
4.3626       50600       136.896
4.37122       50700       136.856
4.37984       50800       136.816
4.38846       50900       136.777
4.39709       51000       136.737
4.40571       51100       136.697
4.41433       51200       136.658
4.42295       51300       136.619
4.43157       51400       136.579
4.4402       51500       136.54
4.44882       51600       136.501
4.45744       51700       136.462
4.46606       51800       136.423
4.47468       51900       136.384
4.4833       52000       136.345
4.49193       52100       136.307
4.50055       52200       136.268
4.50917       52300       136.229
4.51779       52400       136.191
4.52641       52500       136.152
4.53503       52600       136.114
4.54366       52700       136.076
4.55228       52800       136.038
4.5609       52900       136
4.56952       53000       135.962
4.57814       53100       135.924
4.58676       53200       135.886
4.59539       53300       135.848
4.60401       53400       135.811
4.61263       53500       135.773
4.62125       53600       135.735
4.62987       53700       135.698
4.6385       53800       135.661
4.64712       53900       135.623
4.65574       54000       135.586
4.66436       54100       135.549
4.67298       54200       135.512
4.6816       54300       135.475
4.69023       54400       135.438
4.69885       54500       135.401
4.70747       54600       135.364
4.71609       54700       135.328
4.72471       54800       135.291
4.73333       54900       135.254
4.74196       55000       135.218
4.75058       55100       135.182
4.7592       55200       135.145
4.76782       55300       135.109
4.77644       55400       135.073
4.78506       55500       135.037
4.79369       55600       135.001
4.80231       55700       134.965
4.81093       55800       134.929
4.81955       55900       134.893
4.82817       56000       134.857
4.8368       56100       134.822
4.84542       56200       134.786
4.85404       56300       134.75
4.86266       56400       134.715
4.87128       56500       134.68
4.8799       56600       134.644
4.88853       56700       134.609
4.89715       56800       134.574
4.90577       56900       134.539
4.91439       57000       134.503
4.92301       57100       134.469
4.93163       57200       134.434
4.94026       57300       134.399
4.94888       57400       134.364
4.9575       57500       134.329
4.96612       57600       134.295
4.97474       57700       134.26
4.98336       57800       134.225
4.99199       57900       134.191
5.00061       58000       134.157
5.00923       58100       134.122
5.01785       58200       134.088
5.02647       58300       134.054
5.03509       58400       134.02
5.04372       58500       133.985
5.05234       58600       133.951
5.06096       58700       133.918
5.06958       58800       133.884
5.0782       58900       133.85
5.08683       59000       133.816
5.09545       59100       133.782
5.10407       59200       133.749
5.11269       59300       133.715
5.12131       59400       133.682
5.12993       59500       133.648
5.13856       59600       133.615
5.14718       59700       133.582
5.1558       59800       133.548
5.16442       59900       133.515
5.17304       60000       133.482
5.18166       60100       133.449
5.19029       60200       133.416
5.19891       60300       133.383
5.20753       60400       133.35
5.21615       60500       133.317
5.22477       60600       133.284
5.23339       60700       133.252
5.24202       60800       133.219
5.25064       60900       133.186
5.25926       61000       133.154
5.26788       61100       133.121
5.2765       61200       133.089
5.28513       61300       133.057
5.29375       61400       133.024
5.30237       61500       132.992
5.31099       61600       132.96
5.31961       61700       132.928
5.32823       61800       132.896
5.33686       61900       132.864
5.34548       62000       132.832
5.3541       62100       132.8
5.36272       62200       132.768
5.37134       62300       132.736
5.37996       62400       132.704
5.38859       62500       132.673
5.39721       62600       132.641
5.40583       62700       132.609
5.41445       62800       132.578
5.42307       62900       132.546
5.43169       63000       132.515
5.44032       63100       132.484
5.44894       63200       132.452
5.45756       63300       132.421
5.46618       63400       132.39
5.4748       63500       132.359
5.48343       63600       132.328
5.49205       63700       132.297
5.50067       63800       132.266
5.50929       63900       132.235
5.51791       64000       132.204
5.52653       64100       132.173
5.53516       64200       132.142
5.54378       64300       132.112
5.5524       64400       132.081
5.56102       64500       132.05
5.56964       64600       132.02
5.57826       64700       131.989
5.58689       64800       131.959
5.59551       64900       131.928
5.60413       65000       131.898
5.61275       65100       131.868
5.62137       65200       131.837
5.62999       65300       131.807
5.63862       65400       131.777
5.64724       65500       131.747
5.65586       65600       131.717
5.66448       65700       131.687
5.6731       65800       131.657
5.68173       65900       131.627
5.69035       66000       131.597
5.69897       66100       131.568
5.70759       66200       131.538
5.71621       66300       131.508
5.72483       66400       131.478
5.73346       66500       131.449
5.74208       66600       131.419
5.7507       66700       131.39
5.75932       66800       131.36
5.76794       66900       131.331
5.77656       67000       131.302
5.78519       67100       131.272
5.79381       67200       131.243
5.80243       67300       131.214
5.81105       67400       131.185
5.81967       67500       131.155
5.82829       67600       131.126
5.83692       67700       131.097
5.84554       67800       131.068
5.85416       67900       131.039
5.86278       68000       131.011
5.8714       68100       130.982
5.88003       68200       130.953
5.88865       68300       130.924
5.89727       68400       130.896
5.90589       68500       130.867
5.91451       68600       130.838
5.92313       68700       130.81
5.93176       68800       130.781
5.94038       68900       130.753
5.949       69000       130.724
5.95762       69100       130.696
5.96624       69200       130.668
5.97486       69300       130.639
5.98349       69400       130.611
5.99211       69500       130.583
6.00073       69600       130.555
6.00935       69700       130.527
6.01797       69800       130.498
6.02659       69900       130.47
6.03522       70000       130.442
6.04384       70100       130.415
6.05246       70200       130.387
6.06108       70300       130.359
6.0697       70400       130.331
6.07833       70500       130.303
6.08695       70600       130.276
6.09557       70700       130.248
6.10419       70800       130.22
6.11281       70900       130.193
6.12143       71000       130.165
6.13006       71100       130.138
6.13868       71200       130.11
6.1473       71300       130.083
6.15592       71400       130.055
6.16454       71500       130.028
6.17316       71600       130.001
6.18179       71700       129.973
6.19041       71800       129.946
6.19903       71900       129.919
6.20765       72000       129.892
6.21627       72100       129.865
6.22489       72200       129.838
6.23352       72300       129.811
6.24214       72400       129.784
6.25076       72500       129.757
6.25938       72600       129.73
6.268       72700       129.703
6.27663       72800       129.676
6.28525       72900       129.65
6.29387       73000       129.623
6.30249       73100       129.596
6.31111       73200       129.57
6.31973       73300       129.543
6.32836       73400       129.516
6.33698       73500       129.49
6.3456       73600       129.463
6.35422       73700       129.437
6.36284       73800       129.41
6.37146       73900       129.384
6.38009       74000       129.358
6.38871       74100       129.331
6.39733       74200       129.305
6.40595       74300       129.279
6.41457       74400       129.253
6.42319       74500       129.227
6.43182       74600       129.201
6.44044       74700       129.175
6.44906       74800       129.149
6.45768       74900       129.123
6.4663       75000       129.097
6.47493       75100       129.071
6.48355       75200       129.045
6.49217       75300       129.019
6.50079       75400       128.993
6.50941       75500       128.967
6.51803       75600       128.942
6.52666       75700       128.916
6.53528       75800       128.89
6.5439       75900       128.865
6.55252       76000       128.839
6.56114       76100       128.814
6.56976       76200       128.788
6.57839       76300       128.763
6.58701       76400       128.737
6.59563       76500       128.712
6.60425       76600       128.687
6.61287       76700       128.661
6.62149       76800       128.636
6.63012       76900       128.611
6.63874       77000       128.586
6.64736       77100       128.56
6.65598       77200       128.535
6.6646       77300       128.51
6.67323       77400       128.485
6.68185       77500       128.46
6.69047       77600       128.435
6.69909       77700       128.41
6.70771       77800       128.385
6.71633       77900       128.36
6.72496       78000       128.335
6.73358       78100       128.311
6.7422       78200       128.286
6.75082       78300       128.261
6.75944       78400       128.236
6.76806       78500       128.212
6.77669       78600       128.187
6.78531       78700       128.162
6.79393       78800       128.138
6.80255       78900       128.113
6.81117       79000       128.089
6.81979       79100       128.064
6.82842       79200       128.04
6.83704       79300       128.015
6.84566       79400       127.991
6.85428       79500       127.967
6.8629       79600       127.942
6.87153       79700       127.918
6.88015       79800       127.894
6.88877       79900       127.87
6.89739       80000       127.846
6.90601       80100       127.821
6.91463       80200       127.797
6.92326       80300       127.773
6.93188       80400       127.749
6.9405       80500       127.725
6.94912       80600       127.701
6.95774       80700       127.677
6.96636       80800       127.653
6.97499       80900       127.629
6.98361       81000       127.606
6.99223       81100       127.582
7.00085       81200       127.558
7.00947       81300       127.534
7.01809       81400       127.51
7.02672       81500       127.487
7.03534       81600       127.463
7.04396       81700       127.44
7.05258       81800       127.416
7.0612       81900       127.392
7.06983       82000       127.369
7.07845       82100       127.345
7.08707       82200       127.322
7.09569       82300       127.298
7.10431       82400       127.275
7.11293       82500       127.252
7.12156       82600       127.228
7.13018       82700       127.205
7.1388       82800       127.182
7.14742       82900       127.158
7.15604       83000       127.135
7.16466       83100       127.112
7.17329       83200       127.089
7.18191       83300       127.066
7.19053       83400       127.043
7.19915       83500       127.02
7.20777       83600       126.997
7.21639       83700       126.974
7.22502       83800       126.951
7.23364       83900       126.928
7.24226       84000       126.905
7.25088       84100       126.882
7.2595       84200       126.859
7.26813       84300       126.836
7.27675       84400       126.813
7.28537       84500       126.791
7.29399       84600       126.768
7.30261       84700       126.745
7.31123       84800       126.722
7.31986       84900       126.7
7.32848       85000       126.677
7.3371       85100       126.654
7.34572       85200       126.632
7.35434       85300       126.609
7.36296       85400       126.587
7.37159       85500       126.564
7.38021       85600       126.542
7.38883       85700       126.52
7.39745       85800       126.497
7.40607       85900       126.475
7.41469       86000       126.452
7.42332       86100       126.43
7.43194       86200       126.408
7.44056       86300       126.386
7.44918       86400       126.363
7.4578       86500       126.341
7.46643       86600       126.319
7.47505       86700       126.297
7.48367       86800       126.275
7.49229       86900       126.253
7.50091       87000       126.231
7.50953       87100       126.209
7.51816       87200       126.187
7.52678       87300       126.165
7.5354       87400       126.143
7.54402       87500       126.121
7.55264       87600       126.099
7.56126       87700       126.077
7.56989       87800       126.055
7.57851       87900       126.033
7.58713       88000       126.012
7.59575       88100       125.99
7.60437       88200       125.968
7.61299       88300       125.946
7.62162       88400       125.925
7.63024       88500       125.903
7.63886       88600       125.881
7.64748       88700       125.86
7.6561       88800       125.838
7.66473       88900       125.817
7.67335       89000       125.795
7.68197       89100       125.774
7.69059       89200       125.752
7.69921       89300       125.731
7.70783       89400       125.709
7.71646       89500       125.688
7.72508       89600       125.667
7.7337       89700       125.645
7.74232       89800       125.624
7.75094       89900       125.603
7.75956       90000       125.581
7.76819       90100       125.56
7.77681       90200       125.539
7.78543       90300       125.518
7.79405       90400       125.497
7.80267       90500       125.476
7.81129       90600       125.454
7.81992       90700       125.433
7.82854       90800       125.412
7.83716       90900       125.391
7.84578       91000       125.37
7.8544       91100       125.349
7.86303       91200       125.328
7.87165       91300       125.307
7.88027       91400       125.287
7.88889       91500       125.266
7.89751       91600       125.245
7.90613       91700       125.224
7.91476       91800       125.203
7.92338       91900       125.182
7.932       92000       125.162
7.94062       92100       125.141
7.94924       92200       125.12
7.95786       92300       125.1
7.96649       92400       125.079
7.97511       92500       125.058
7.98373       92600       125.038
7.99235       92700       125.017
8.00097       92800       124.996
8.00959       92900       124.976
8.01822       93000       124.955
8.02684       93100       124.935
8.03546       93200       124.914
8.04408       93300       124.894
8.0527       93400       124.874
8.06133       93500       124.853
8.06995       93600       124.833
8.07857       93700       124.813
8.08719       93800       124.792
8.09581       93900       124.772
8.10443       94000       124.752
8.11306       94100       124.731
8.12168       94200       124.711
8.1303       94300       124.691
8.13892       94400       124.671
8.14754       94500       124.651
8.15616       94600       124.631
8.16479       94700       124.61
8.17341       94800       124.59
8.18203       94900       124.57
8.19065       95000       124.55
8.19927       95100       124.53
8.20789       95200       124.51
8.21652       95300       124.49
8.22514       95400       124.47
8.23376       95500       124.45
8.24238       95600       124.43
8.251       95700       124.411
8.25963       95800       124.391
8.26825       95900       124.371
8.27687       96000       124.351
8.28549       96100       124.331
8.29411       96200       124.312
8.30273       96300       124.292
8.31136       96400       124.272
8.31998       96500       124.252
8.3286       96600       124.233
8.33722       96700       124.213
8.34584       96800       124.193
8.35446       96900       124.174
8.36309       97000       124.154
8.37171       97100       124.135
8.38033       97200       124.115
8.38895       97300       124.096
8.39757       97400       124.076
8.40619       97500       124.057
8.41482       97600       124.037
8.42344       97700       124.018
8.43206       97800       123.998
8.44068       97900       123.979
8.4493       98000       123.96
8.45792       98100       123.94
8.46655       98200       123.921
8.47517       98300       123.902
8.48379       98400       123.882
8.49241       98500       123.863
8.50103       98600       123.844
8.50966       98700       123.825
8.51828       98800       123.805
8.5269       98900       123.786
8.53552       99000       123.767
8.54414       99100       123.748
8.55276       99200       123.729
8.56139       99300       123.71
8.57001       99400       123.691
8.57863       99500       123.672
8.58725       99600       123.653
8.59587       99700       123.633
8.60449       99800       123.615
8.61312       99900       123.596
8.62174       100000       123.577
8.63036       100100       123.558
8.63898       100200       123.539
8.6476       100300       123.52
8.65622       100400       123.501
8.66485       100500       123.482
8.67347       100600       123.463
8.68209       100700       123.445
8.69071       100800       123.426
8.69933       100900       123.407
8.70796       101000       123.388
8.71658       101100       123.37
8.7252       101200       123.351
8.73382       101300       123.332
8.74244       101400       123.313
8.75106       101500       123.295
8.75969       101600       123.276
8.76831       101700       123.258
8.77693       101800       123.239
8.78555       101900       123.22
8.79417       102000       123.202
8.80279       102100       123.183
8.81142       102200       123.165
8.82004       102300       123.146
8.82866       102400       123.128
8.83728       102500       123.109
8.8459       102600       123.091
8.85452       102700       123.073
8.86315       102800       123.054
8.87177       102900       123.036
8.88039       103000       123.018
8.88901       103100       122.999
8.89763       103200       122.981
8.90626       103300       122.963
8.91488       103400       122.944
8.9235       103500       122.926
8.93212       103600       122.908
8.94074       103700       122.89
8.94936       103800       122.871
8.95799       103900       122.853
8.96661       104000       122.835
8.97523       104100       122.817
8.98385       104200       122.799
8.99247       104300       122.781
9.00109       104400       122.763
9.00972       104500       122.745
9.01834       104600       122.727
9.02696       104700       122.709
9.03558       104800       122.691
9.0442       104900       122.673
9.05282       105000       122.655
9.06145       105100       122.637
9.07007       105200       122.619
9.07869       105300       122.601
9.08731       105400       122.583
9.09593       105500       122.565
9.10456       105600       122.547
9.11318       105700       122.529
9.1218       105800       122.512
9.13042       105900       122.494
9.13904       106000       122.476
9.14766       106100       122.458
9.15629       106200       122.44
9.16491       106300       122.423
9.17353       106400       122.405
9.18215       106500       122.387
9.19077       106600       122.37
9.19939       106700       122.352
9.20802       106800       122.334
9.21664       106900       122.317
9.22526       107000       122.299
9.23388       107100       122.282
9.2425       107200       122.264
9.25112       107300       122.246
9.25975       107400       122.229
9.26837       107500       122.211
9.27699       107600       122.194
9.28561       107700       122.176
9.29423       107800       122.159
9.30286       107900       122.142
9.31148       108000       122.124
9.3201       108100       122.107
9.32872       108200       122.089
9.33734       108300       122.072
9.34596       108400       122.055
9.35459       108500       122.037
9.36321       108600       122.02
9.37183       108700       122.003
9.38045       108800       121.985
9.38907       108900       121.968
9.39769       109000       121.951
9.40632       109100       121.934
9.41494       109200       121.916
9.42356       109300       121.899
9.43218       109400       121.882
9.4408       109500       121.865
9.44942       109600       121.848
9.45805       109700       121.831
9.46667       109800       121.813
9.47529       109900       121.796
9.48391       110000       121.779
9.49253       110100       121.762
9.50116       110200       121.745
9.50978       110300       121.728
9.5184       110400       121.711
9.52702       110500       121.694
9.53564       110600       121.677
9.54426       110700       121.66
9.55289       110800       121.643
9.56151       110900       121.626
9.57013       111000       121.609
9.57875       111100       121.592
9.58737       111200       121.576
9.59599       111300       121.559
9.60462       111400       121.542
9.61324       111500       121.525
9.62186       111600       121.508
9.63048       111700       121.491
9.6391       111800       121.475
9.64772       111900       121.458
9.65635       112000       121.441
9.66497       112100       121.424
9.67359       112200       121.408
9.68221       112300       121.391
9.69083       112400       121.374
9.69946       112500       121.358
9.70808       112600       121.341
9.7167       112700       121.324
9.72532       112800       121.308
9.73394       112900       121.291
9.74256       113000       121.275
9.75119       113100       121.258
9.75981       113200       121.241
9.76843       113300       121.225
9.77705       113400       121.208
9.78567       113500       121.192
9.79429       113600       121.175
9.80292       113700       121.159
9.81154       113800       121.142
9.82016       113900       121.126
9.82878       114000       121.11
9.8374       114100       121.093
9.84602       114200       121.077
9.85465       114300       121.06
9.86327       114400       121.044
9.87189       114500       121.028
9.88051       114600       121.011
9.88913       114700       120.995
9.89776       114800       120.979
9.90638       114900       120.962
9.915       115000       120.946
9.92362       115100       120.93
9.93224       115200       120.914
9.94086       115300       120.897
9.94949       115400       120.881
9.95811       115500       120.865
9.96673       115600       120.849
9.97535       115700       120.833
9.98397       115800       120.817
9.99259       115900       120.8
10.0012       116000       120.784
10.0098       116100       120.768
10.0185       116200       120.752
10.0271       116300       120.736
10.0357       116400       120.72
10.0443       116500       120.704
10.0529       116600       120.688
10.0616       116700       120.672
10.0702       116800       120.656
10.0788       116900       120.64
10.0874       117000       120.624
10.0961       117100       120.608
10.1047       117200       120.592
10.1133       117300       120.576
10.1219       117400       120.56
10.1305       117500       120.544
10.1392       117600       120.528
10.1478       117700       120.513
10.1564       117800       120.497
10.165       117900       120.481
10.1737       118000       120.465
10.1823       118100       120.449
10.1909       118200       120.433
10.1995       118300       120.418
10.2081       118400       120.402
10.2168       118500       120.386
10.2254       118600       120.37
10.234       118700       120.355
10.2426       118800       120.339
10.2512       118900       120.323
10.2599       119000       120.308
10.2685       119100       120.292
10.2771       119200       120.276
10.2857       119300       120.261
10.2944       119400       120.245
10.303       119500       120.229
10.3116       119600       120.214
10.3202       119700       120.198
10.3288       119800       120.183
10.3375       119900       120.167
10.3461       120000       120.152
10.3547       120100       120.136
10.3633       120200       120.121
10.372       120300       120.105
10.3806       120400       120.09
10.3892       120500       120.074
10.3978       120600       120.059
10.4064       120700       120.043
10.4151       120800       120.028
10.4237       120900       120.012
10.4323       121000       119.997
10.4409       121100       119.982
10.4495       121200       119.966
10.4582       121300       119.951
10.4668       121400       119.936
10.4754       121500       119.92
10.484       121600       119.905
10.4927       121700       119.89
10.5013       121800       119.874
10.5099       121900       119.859
10.5185       122000       119.844
10.5271       122100       119.829
10.5358       122200       119.813
10.5444       122300       119.798
10.553       122400       119.783
10.5616       122500       119.768
10.5703       122600       119.753
10.5789       122700       119.737
10.5875       122800       119.722
10.5961       122900       119.707
10.6047       123000       119.692
10.6134       123100       119.677
10.622       123200       119.662
10.6306       123300       119.647
10.6392       123400       119.632
10.6478       123500       119.617
10.6565       123600       119.602
10.6651       123700       119.587
10.6737       123800       119.572
10.6823       123900       119.557
10.691       124000       119.542
10.6996       124100       119.527
10.7082       124200       119.512
10.7168       124300       119.497
10.7254       124400       119.482
10.7341       124500       119.467
10.7427       124600       119.452
10.7513       124700       119.437
10.7599       124800       119.422
10.7686       124900       119.407
10.7772       125000       119.392
10.7858       125100       119.378
10.7944       125200       119.363
10.803       125300       119.348
10.8117       125400       119.333
10.8203       125500       119.318
10.8289       125600       119.303
10.8375       125700       119.289
10.8461       125800       119.274
10.8548       125900       119.259
10.8634       126000       119.244
10.872       126100       119.23
10.8806       126200       119.215
10.8893       126300       119.2
10.8979       126400       119.186
10.9065       126500       119.171
10.9151       126600       119.156
10.9237       126700       119.142
10.9324       126800       119.127
10.941       126900       119.112
10.9496       127000       119.098
10.9582       127100       119.083
10.9669       127200       119.069
10.9755       127300       119.054
10.9841       127400       119.04
10.9927       127500       119.025
11.0013       127600       119.01
11.01       127700       118.996
11.0186       127800       118.981
11.0272       127900       118.967
11.0358       128000       118.952
11.0444       128100       118.938
11.0531       128200       118.924
11.0617       128300       118.909
11.0703       128400       118.895
11.0789       128500       118.88
11.0876       128600       118.866
11.0962       128700       118.851
11.1048       128800       118.837
11.1134       128900       118.823
11.122       129000       118.808
11.1307       129100       118.794
11.1393       129200       118.78
11.1479       129300       118.765
11.1565       129400       118.751
11.1652       129500       118.737
11.1738       129600       118.722
11.1824       129700       118.708
11.191       129800       118.694
11.1996       129900       118.68
11.2083       130000       118.665
11.2169       130100       118.651
11.2255       130200       118.637
11.2341       130300       118.623
11.2427       130400       118.609
11.2514       130500       118.594
11.26       130600       118.58
11.2686       130700       118.566
11.2772       130800       118.552
11.2859       130900       118.538
11.2945       131000       118.524
11.3031       131100       118.51
11.3117       131200       118.495
11.3203       131300       118.481
11.329       131400       118.467
11.3376       131500       118.453
11.3462       131600       118.439
11.3548       131700       118.425
11.3635       131800       118.411
11.3721       131900       118.397
11.3807       132000       118.383
11.3893       132100       118.369
11.3979       132200       118.355
11.4066       132300       118.341
11.4152       132400       118.327
11.4238       132500       118.313
11.4324       132600       118.299
11.441       132700       118.285
11.4497       132800       118.271
11.4583       132900       118.258
11.4669       133000       118.244
11.4755       133100       118.23
11.4842       133200       118.216
11.4928       133300       118.202
11.5014       133400       118.188
11.51       133500       118.174
11.5186       133600       118.161
11.5273       133700       118.147
11.5359       133800       118.133
11.5445       133900       118.119
11.5531       134000       118.105
11.5618       134100       118.092
11.5704       134200       118.078
11.579       134300       118.064
11.5876       134400       118.05
11.5962       134500       118.037
11.6049       134600       118.023
11.6135       134700       118.009
11.6221       134800       117.996
11.6307       134900       117.982
11.6393       135000       117.968
11.648       135100       117.955
11.6566       135200       117.941
11.6652       135300       117.927
11.6738       135400       117.914
11.6825       135500       117.9
11.6911       135600       117.886
11.6997       135700       117.873
11.7083       135800       117.859
11.7169       135900       117.846
11.7256       136000       117.832
11.7342       136100       117.819
11.7428       136200       117.805
11.7514       136300       117.792
11.7601       136400       117.778
11.7687       136500       117.765
11.7773       136600       117.751
11.7859       136700       117.738
11.7945       136800       117.724
11.8032       136900       117.711
11.8118       137000       117.697
11.8204       137100       117.684
11.829       137200       117.67
11.8376       137300       117.657
11.8463       137400       117.644
11.8549       137500       117.63
11.8635       137600       117.617
11.8721       137700       117.603
11.8808       137800       117.59
11.8894       137900       117.577
11.898       138000       117.563
11.9066       138100       117.55
11.9152       138200       117.537
11.9239       138300       117.523
11.9325       138400       117.51
11.9411       138500       117.497
11.9497       138600       117.483
11.9584       138700       117.47
11.967       138800       117.457
11.9756       138900       117.444
11.9842       139000       117.43
11.9928       139100       117.417
12.0015       139200       117.404
12.0101       139300       117.391
12.0187       139400       117.378
12.0273       139500       117.364
12.0359       139600       117.351
12.0446       139700       117.338
12.0532       139800       117.325
12.0618       139900       117.312
12.0704       140000       117.299
12.0791       140100       117.286
12.0877       140200       117.272
12.0963       140300       117.259
12.1049       140400       117.246
12.1135       140500       117.233
12.1222       140600       117.22
12.1308       140700       117.207
12.1394       140800       117.194
12.148       140900       117.181
12.1567       141000       117.168
12.1653       141100       117.155
12.1739       141200       117.142
12.1825       141300       117.129
12.1911       141400       117.116
12.1998       141500       117.103
12.2084       141600       117.09
12.217       141700       117.077
12.2256       141800       117.064
12.2342       141900       117.051
12.2429       142000       117.038
12.2515       142100       117.025
12.2601       142200       117.012
12.2687       142300       116.999
12.2774       142400       116.986
12.286       142500       116.974
12.2946       142600       116.961
12.3032       142700       116.948
12.3118       142800       116.935
12.3205       142900       116.922
12.3291       143000       116.909
12.3377       143100       116.896
12.3463       143200       116.884
12.355       143300       116.871
12.3636       143400       116.858
12.3722       143500       116.845
12.3808       143600       116.832
12.3894       143700       116.82
12.3981       143800       116.807
12.4067       143900       116.794
12.4153       144000       116.781
12.4239       144100       116.769
12.4325       144200       116.756
12.4412       144300       116.743
12.4498       144400       116.731
12.4584       144500       116.718
12.467       144600       116.705
12.4757       144700       116.692
12.4843       144800       116.68
12.4929       144900       116.667
12.5015       145000       116.655
12.5101       145100       116.642
12.5188       145200       116.629
12.5274       145300       116.617
12.536       145400       116.604
12.5446       145500       116.591
12.5533       145600       116.579
12.5619       145700       116.566
12.5705       145800       116.554
12.5791       145900       116.541
12.5877       146000       116.529
12.5964       146100       116.516
12.605       146200       116.504
12.6136       146300       116.491
12.6222       146400       116.478
12.6308       146500       116.466
12.6395       146600       116.453
12.6481       146700       116.441
12.6567       146800       116.429
12.6653       146900       116.416
12.674       147000       116.404
12.6826       147100       116.391
12.6912       147200       116.379
12.6998       147300       116.366
12.7084       147400       116.354
12.7171       147500       116.341
12.7257       147600       116.329
12.7343       147700       116.317
12.7429       147800       116.304
12.7516       147900       116.292
12.7602       148000       116.28
12.7688       148100       116.267
12.7774       148200       116.255
12.786       148300       116.242
12.7947       148400       116.23
12.8033       148500       116.218
12.8119       148600       116.206
12.8205       148700       116.193
12.8291       148800       116.181
12.8378       148900       116.169
12.8464       149000       116.156
12.855       149100       116.144
12.8636       149200       116.132
12.8723       149300       116.12
12.8809       149400       116.107
12.8895       149500       116.095
12.8981       149600       116.083
12.9067       149700       116.071
12.9154       149800       116.058
12.924       149900       116.046
12.9326       150000       116.034
12.9412       150100       116.022
12.9499       150200       116.01
12.9585       150300       115.998
12.9671       150400       115.985
12.9757       150500       115.973
12.9843       150600       115.961
12.993       150700       115.949
13.0016       150800       115.937
13.0102       150900       115.925
13.0188       151000       115.913
13.0274       151100       115.901
13.0361       151200       115.889
13.0447       151300       115.876
13.0533       151400       115.864
13.0619       151500       115.852
13.0706       151600       115.84
13.0792       151700       115.828
13.0878       151800       115.816
13.0964       151900       115.804
13.105       152000       115.792
13.1137       152100       115.78
13.1223       152200       115.768
13.1309       152300       115.756
13.1395       152400       115.744
13.1482       152500       115.732
13.1568       152600       115.72
13.1654       152700       115.708
13.174       152800       115.696
13.1826       152900       115.684
13.1913       153000       115.673
13.1999       153100       115.661
13.2085       153200       115.649
13.2171       153300       115.637
13.2257       153400       115.625
13.2344       153500       115.613
13.243       153600       115.601
13.2516       153700       115.589
13.2602       153800       115.577
13.2689       153900       115.566
13.2775       154000       115.554
13.2861       154100       115.542
13.2947       154200       115.53
13.3033       154300       115.518
13.312       154400       115.506
13.3206       154500       115.495
13.3292       154600       115.483
13.3378       154700       115.471
13.3465       154800       115.459
13.3551       154900       115.448
13.3637       155000       115.436
13.3723       155100       115.424
13.3809       155200       115.412
13.3896       155300       115.401
13.3982       155400       115.389
13.4068       155500       115.377
13.4154       155600       115.365
13.424       155700       115.354
13.4327       155800       115.342
13.4413       155900       115.33
13.4499       156000       115.319
13.4585       156100       115.307
13.4672       156200       115.295
13.4758       156300       115.284
13.4844       156400       115.272
13.493       156500       115.26
13.5016       156600       115.249
13.5103       156700       115.237
13.5189       156800       115.226
13.5275       156900       115.214
13.5361       157000       115.202
13.5448       157100       115.191
13.5534       157200       115.179
13.562       157300       115.168
13.5706       157400       115.156
13.5792       157500       115.144
13.5879       157600       115.133
13.5965       157700       115.121
13.6051       157800       115.11
13.6137       157900       115.098
13.6223       158000       115.087
13.631       158100       115.075
13.6396       158200       115.064
13.6482       158300       115.052
13.6568       158400       115.041
13.6655       158500       115.029
13.6741       158600       115.018
13.6827       158700       115.006
13.6913       158800       114.995
13.6999       158900       114.983
13.7086       159000       114.972
13.7172       159100       114.961
13.7258       159200       114.949
13.7344       159300       114.938
13.7431       159400       114.926
13.7517       159500       114.915
13.7603       159600       114.904
13.7689       159700       114.892
13.7775       159800       114.881
13.7862       159900       114.869
13.7948       160000       114.858
13.8034       160100       114.847
13.812       160200       114.835
13.8206       160300       114.824
13.8293       160400       114.813
13.8379       160500       114.801
13.8465       160600       114.79
13.8551       160700       114.779
13.8638       160800       114.767
13.8724       160900       114.756
13.881       161000       114.745
13.8896       161100       114.734
13.8982       161200       114.722
13.9069       161300       114.711
13.9155       161400       114.7
13.9241       161500       114.689
13.9327       161600       114.677
13.9414       161700       114.666
13.95       161800       114.655
13.9586       161900       114.644
13.9672       162000       114.632
13.9758       162100       114.621
13.9845       162200       114.61
13.9931       162300       114.599
14.0017       162400       114.588
14.0103       162500       114.577
14.0189       162600       114.565
14.0276       162700       114.554
14.0362       162800       114.543
14.0448       162900       114.532
14.0534       163000       114.521
14.0621       163100       114.51
14.0707       163200       114.499
14.0793       163300       114.487
14.0879       163400       114.476
14.0965       163500       114.465
14.1052       163600       114.454
14.1138       163700       114.443
14.1224       163800       114.432
14.131       163900       114.421
14.1397       164000       114.41
14.1483       164100       114.399
14.1569       164200       114.388
14.1655       164300       114.377
14.1741       164400       114.366
14.1828       164500       114.355
14.1914       164600       114.344
14.2       164700       114.333
14.2086       164800       114.322
14.2172       164900       114.311
14.2259       165000       114.3
14.2345       165100       114.289
14.2431       165200       114.278
14.2517       165300       114.267
14.2604       165400       114.256
14.269       165500       114.245
14.2776       165600       114.234
14.2862       165700       114.223
14.2948       165800       114.212
14.3035       165900       114.201
14.3121       166000       114.19
14.3207       166100       114.179
14.3293       166200       114.168
14.338       166300       114.157
14.3466       166400       114.147
14.3552       166500       114.136
14.3638       166600       114.125
14.3724       166700       114.114
14.3811       166800       114.103
14.3897       166900       114.092
14.3983       167000       114.081
14.4069       167100       114.071
14.4155       167200       114.06
14.4242       167300       114.049
14.4328       167400       114.038
14.4414       167500       114.027
14.45       167600       114.016
14.4587       167700       114.006
14.4673       167800       113.995
14.4759       167900       113.984
14.4845       168000       113.973
14.4931       168100       113.963
14.5018       168200       113.952
14.5104       168300       113.941
14.519       168400       113.93
14.5276       168500       113.92
14.5363       168600       113.909
14.5449       168700       113.898
14.5535       168800       113.887
14.5621       168900       113.877
14.5707       169000       113.866
14.5794       169100       113.855
14.588       169200       113.845
14.5966       169300       113.834
14.6052       169400       113.823
14.6138       169500       113.813
14.6225       169600       113.802
14.6311       169700       113.791
14.6397       169800       113.781
14.6483       169900       113.77
14.657       170000       113.759
14.6656       170100       113.749
14.6742       170200       113.738
14.6828       170300       113.727
14.6914       170400       113.717
14.7001       170500       113.706
14.7087       170600       113.696
14.7173       170700       113.685
14.7259       170800       113.674
14.7346       170900       113.664
14.7432       171000       113.653
14.7518       171100       113.643
14.7604       171200       113.632
14.769       171300       113.622
14.7777       171400       113.611
14.7863       171500       113.601
14.7949       171600       113.59
14.8035       171700       113.58
14.8121       171800       113.569
14.8208       171900       113.559
14.8294       172000       113.548
14.838       172100       113.538
14.8466       172200       113.527
14.8553       172300       113.517
14.8639       172400       113.506
14.8725       172500       113.496
14.8811       172600       113.485
14.8897       172700       113.475
14.8984       172800       113.464
14.907       172900       113.454
14.9156       173000       113.443
14.9242       173100       113.433
14.9329       173200       113.423
14.9415       173300       113.412
14.9501       173400       113.402
14.9587       173500       113.391
14.9673       173600       113.381
14.976       173700       113.37
14.9846       173800       113.36
14.9932       173900       113.35
15.0018       174000       113.339
15.0104       174100       113.329
15.0191       174200       113.319
15.0277       174300       113.308
15.0363       174400       113.298
15.0449       174500       113.288
15.0536       174600       113.277
15.0622       174700       113.267
15.0708       174800       113.257
15.0794       174900       113.246
15.088       175000       113.236
15.0967       175100       113.226
15.1053       175200       113.215
15.1139       175300       113.205
15.1225       175400       113.195
15.1312       175500       113.185
15.1398       175600       113.174
15.1484       175700       113.164
15.157       175800       113.154
15.1656       175900       113.144
15.1743       176000       113.133
15.1829       176100       113.123
15.1915       176200       113.113
15.2001       176300       113.103
15.2087       176400       113.092
15.2174       176500       113.082
15.226       176600       113.072
15.2346       176700       113.062
15.2432       176800       113.052
15.2519       176900       113.041
15.2605       177000       113.031
15.2691       177100       113.021
15.2777       177200       113.011
15.2863       177300       113.001
15.295       177400       112.991
15.3036       177500       112.98
15.3122       177600       112.97
15.3208       177700       112.96
15.3295       177800       112.95
15.3381       177900       112.94
15.3467       178000       112.93
15.3553       178100       112.92
15.3639       178200       112.91
15.3726       178300       112.899
15.3812       178400       112.889
15.3898       178500       112.879
15.3984       178600       112.869
15.407       178700       112.859
15.4157       178800       112.849
15.4243       178900       112.839
15.4329       179000       112.829
15.4415       179100       112.819
15.4502       179200       112.809
15.4588       179300       112.799
15.4674       179400       112.789
15.476       179500       112.779
15.4846       179600       112.769
15.4933       179700       112.759
15.5019       179800       112.749
15.5105       179900       112.739
15.5191       180000       112.729
15.5278       180100       112.719
15.5364       180200       112.709
15.545       180300       112.699
15.5536       180400       112.689
15.5622       180500       112.679
15.5709       180600       112.669
15.5795       180700       112.659
15.5881       180800       112.649
15.5967       180900       112.639
15.6053       181000       112.629
15.614       181100       112.619
15.6226       181200       112.609
15.6312       181300       112.599
15.6398       181400       112.589
15.6485       181500       112.579
15.6571       181600       112.57
15.6657       181700       112.56
15.6743       181800       112.55
15.6829       181900       112.54
15.6916       182000       112.53
15.7002       182100       112.52
15.7088       182200       112.51
15.7174       182300       112.5
15.7261       182400       112.491
15.7347       182500       112.481
15.7433       182600       112.471
15.7519       182700       112.461
15.7605       182800       112.451
15.7692       182900       112.441
15.7778       183000       112.432
15.7864       183100       112.422
15.795       183200       112.412
15.8036       183300       112.402
15.8123       183400       112.392
15.8209       183500       112.383
15.8295       183600       112.373
15.8381       183700       112.363
15.8468       183800       112.353
15.8554       183900       112.343
15.864       184000       112.334
15.8726       184100       112.324
15.8812       184200       112.314
15.8899       184300       112.304
15.8985       184400       112.295
15.9071       184500       112.285
15.9157       184600       112.275
15.9244       184700       112.266
15.933       184800       112.256
15.9416       184900       112.246
15.9502       185000       112.236
15.9588       185100       112.227
15.9675       185200       112.217
15.9761       185300       112.207
15.9847       185400       112.198
15.9933       185500       112.188
16.0019       185600       112.178
16.0106       185700       112.169
16.0192       185800       112.159
16.0278       185900       112.149
16.0364       186000       112.14
16.0451       186100       112.13
16.0537       186200       112.12
16.0623       186300       112.111
16.0709       186400       112.101
16.0795       186500       112.092
16.0882       186600       112.082
16.0968       186700       112.072
16.1054       186800       112.063
16.114       186900       112.053
16.1227       187000       112.044
16.1313       187100       112.034
16.1399       187200       112.024
16.1485       187300       112.015
16.1571       187400       112.005
16.1658       187500       111.996
16.1744       187600       111.986
16.183       187700       111.977
16.1916       187800       111.967
16.2002       187900       111.958
16.2089       188000       111.948
16.2175       188100       111.938
16.2261       188200       111.929
16.2347       188300       111.919
16.2434       188400       111.91
16.252       188500       111.9
16.2606       188600       111.891
16.2692       188700       111.881
16.2778       188800       111.872
16.2865       188900       111.862
16.2951       189000       111.853
16.3037       189100       111.843
16.3123       189200       111.834
16.321       189300       111.825
16.3296       189400       111.815
16.3382       189500       111.806
16.3468       189600       111.796
16.3554       189700       111.787
16.3641       189800       111.777
16.3727       189900       111.768
16.3813       190000       111.758
16.3899       190100       111.749
16.3985       190200       111.74
16.4072       190300       111.73
16.4158       190400       111.721
16.4244       190500       111.711
16.433       190600       111.702
16.4417       190700       111.693
16.4503       190800       111.683
16.4589       190900       111.674
16.4675       191000       111.664
16.4761       191100       111.655
16.4848       191200       111.646
16.4934       191300       111.636
16.502       191400       111.627
16.5106       191500       111.618
16.5193       191600       111.608
16.5279       191700       111.599
16.5365       191800       111.59
16.5451       191900       111.58
16.5537       192000       111.571
16.5624       192100       111.562
16.571       192200       111.552
16.5796       192300       111.543
16.5882       192400       111.534
16.5968       192500       111.525
16.6055       192600       111.515
16.6141       192700       111.506
16.6227       192800       111.497
16.6313       192900       111.487
16.64       193000       111.478
16.6486       193100       111.469
16.6572       193200       111.46
16.6658       193300       111.45
16.6744       193400       111.441
16.6831       193500       111.432
16.6917       193600       111.423
16.7003       193700       111.413
16.7089       193800       111.404
16.7175       193900       111.395
16.7262       194000       111.386
16.7348       194100       111.377
16.7434       194200       111.367
16.752       194300       111.358
16.7607       194400       111.349
16.7693       194500       111.34
16.7779       194600       111.331
16.7865       194700       111.321
16.7951       194800       111.312
16.8038       194900       111.303
16.8124       195000       111.294
16.821       195100       111.285
16.8296       195200       111.276
16.8383       195300       111.266
16.8469       195400       111.257
16.8555       195500       111.248
16.8641       195600       111.239
16.8727       195700       111.23
16.8814       195800       111.221
16.89       195900       111.212
16.8986       196000       111.203
16.9072       196100       111.193
16.9158       196200       111.184
16.9245       196300       111.175
16.9331       196400       111.166
16.9417       196500       111.157
16.9503       196600       111.148
16.959       196700       111.139
16.9676       196800       111.13
16.9762       196900       111.121
16.9848       197000       111.112
16.9934       197100       111.103
17.0021       197200       111.094
17.0107       197300       111.085
17.0193       197400       111.076
17.0279       197500       111.066
17.0366       197600       111.057
17.0452       197700       111.048
17.0538       197800       111.039
17.0624       197900       111.03
17.071       198000       111.021
17.0797       198100       111.012
17.0883       198200       111.003
17.0969       198300       110.994
17.1055       198400       110.985
17.1141       198500       110.976
17.1228       198600       110.967
17.1314       198700       110.958
17.14       198800       110.949
17.1486       198900       110.94
17.1573       199000       110.932
17.1659       199100       110.923
17.1745       199200       110.914
17.1831       199300       110.905
17.1917       199400       110.896
17.2004       199500       110.887
17.209       199600       110.878
17.2176       199700       110.869
17.2262       199800       110.86
17.2349       199900       110.851
17.2435       200000       110.842
17.2521       200100       110.833
17.2607       200200       110.824
17.2693       200300       110.815
17.278       200400       110.807
17.2866       200500       110.798
17.2952       200600       110.789
17.3038       200700       110.78
17.3124       200800       110.771
17.3211       200900       110.762
17.3297       201000       110.753
17.3383       201100       110.744
17.3469       201200       110.736
17.3556       201300       110.727
17.3642       201400       110.718
17.3728       201500       110.709
17.3814       201600       110.7
17.39       201700       110.691
17.3987       201800       110.683
17.4073       201900       110.674
17.4159       202000       110.665
17.4245       202100       110.656
17.4332       202200       110.647
17.4418       202300       110.638
17.4504       202400       110.63
17.459       202500       110.621
17.4676       202600       110.612
17.4763       202700       110.603
17.4849       202800       110.594
17.4935       202900       110.586
17.5021       203000       110.577
17.5107       203100       110.568
17.5194       203200       110.559
17.528       203300       110.551
17.5366       203400       110.542
17.5452       203500       110.533
17.5539       203600       110.524
17.5625       203700       110.516
17.5711       203800       110.507
17.5797       203900       110.498
17.5883       204000       110.489
17.597       204100       110.481
17.6056       204200       110.472
17.6142       204300       110.463
17.6228       204400       110.455
17.6315       204500       110.446
17.6401       204600       110.437
17.6487       204700       110.429
17.6573       204800       110.42
17.6659       204900       110.411
17.6746       205000       110.403
17.6832       205100       110.394
17.6918       205200       110.385
17.7004       205300       110.376
17.709       205400       110.368
17.7177       205500       110.359
17.7263       205600       110.351
17.7349       205700       110.342
17.7435       205800       110.333
17.7522       205900       110.325
17.7608       206000       110.316
17.7694       206100       110.307
17.778       206200       110.299
17.7866       206300       110.29
17.7953       206400       110.281
17.8039       206500       110.273
17.8125       206600       110.264
17.8211       206700       110.256
17.8298       206800       110.247
17.8384       206900       110.238
17.847       207000       110.23
17.8556       207100       110.221
17.8642       207200       110.213
17.8729       207300       110.204
17.8815       207400       110.196
17.8901       207500       110.187
17.8987       207600       110.178
17.9073       207700       110.17
17.916       207800       110.161
17.9246       207900       110.153
17.9332       208000       110.144
17.9418       208100       110.136
17.9505       208200       110.127
17.9591       208300       110.119
17.9677       208400       110.11
17.9763       208500       110.102
17.9849       208600       110.093
17.9936       208700       110.085
18.0022       208800       110.076
18.0108       208900       110.068
18.0194       209000       110.059
18.0281       209100       110.051
18.0367       209200       110.042
18.0453       209300       110.034
18.0539       209400       110.025
18.0625       209500       110.017
18.0712       209600       110.008
18.0798       209700       110
18.0884       209800       109.991
18.097       209900       109.983
18.1056       210000       109.974
18.1143       210100       109.966
18.1229       210200       109.957
18.1315       210300       109.949
18.1401       210400       109.941
18.1488       210500       109.932
18.1574       210600       109.924
18.166       210700       109.915
18.1746       210800       109.907
18.1832       210900       109.898
18.1919       211000       109.89
18.2005       211100       109.882
18.2091       211200       109.873
18.2177       211300       109.865
18.2264       211400       109.856
18.235       211500       109.848
18.2436       211600       109.84
18.2522       211700       109.831
18.2608       211800       109.823
18.2695       211900       109.815
18.2781       212000       109.806
18.2867       212100       109.798
18.2953       212200       109.789
18.3039       212300       109.781
18.3126       212400       109.773
18.3212       212500       109.764
18.3298       212600       109.756
18.3384       212700       109.748
18.3471       212800       109.739
18.3557       212900       109.731
18.3643       213000       109.723
18.3729       213100       109.714
18.3815       213200       109.706
18.3902       213300       109.698
18.3988       213400       109.689
18.4074       213500       109.681
18.416       213600       109.673
18.4247       213700       109.665
18.4333       213800       109.656
18.4419       213900       109.648
18.4505       214000       109.64
18.4591       214100       109.631
18.4678       214200       109.623
18.4764       214300       109.615
18.485       214400       109.607
18.4936       214500       109.598
18.5022       214600       109.59
18.5109       214700       109.582
18.5195       214800       109.574
18.5281       214900       109.565
18.5367       215000       109.557
18.5454       215100       109.549
18.554       215200       109.541
18.5626       215300       109.532
18.5712       215400       109.524
18.5798       215500       109.516
18.5885       215600       109.508
18.5971       215700       109.5
18.6057       215800       109.491
18.6143       215900       109.483
18.623       216000       109.475
18.6316       216100       109.467
18.6402       216200       109.459
18.6488       216300       109.45
18.6574       216400       109.442
18.6661       216500       109.434
18.6747       216600       109.426
18.6833       216700       109.418
18.6919       216800       109.409
18.7005       216900       109.401
18.7092       217000       109.393
18.7178       217100       109.385
18.7264       217200       109.377
18.735       217300       109.369
18.7437       217400       109.361
18.7523       217500       109.352
18.7609       217600       109.344
18.7695       217700       109.336
18.7781       217800       109.328
18.7868       217900       109.32
18.7954       218000       109.312
18.804       218100       109.304
18.8126       218200       109.296
18.8213       218300       109.287
18.8299       218400       109.279
18.8385       218500       109.271
18.8471       218600       109.263
18.8557       218700       109.255
18.8644       218800       109.247
18.873       218900       109.239
18.8816       219000       109.231
18.8902       219100       109.223
18.8988       219200       109.215
18.9075       219300       109.207
18.9161       219400       109.199
18.9247       219500       109.191
18.9333       219600       109.182
18.942       219700       109.174
18.9506       219800       109.166
18.9592       219900       109.158
18.9678       220000       109.15
18.9764       220100       109.142
18.9851       220200       109.134
18.9937       220300       109.126
19.0023       220400       109.118
19.0109       220500       109.11
19.0196       220600       109.102
19.0282       220700       109.094
19.0368       220800       109.086
19.0454       220900       109.078
19.054       221000       109.07
19.0627       221100       109.062
19.0713       221200       109.054
19.0799       221300       109.046
19.0885       221400       109.038
19.0971       221500       109.03
19.1058       221600       109.022
19.1144       221700       109.014
19.123       221800       109.006
19.1316       221900       108.998
19.1403       222000       108.99
19.1489       222100       108.982
19.1575       222200       108.974
19.1661       222300       108.967
19.1747       222400       108.959
19.1834       222500       108.951
19.192       222600       108.943
19.2006       222700       108.935
19.2092       222800       108.927
19.2179       222900       108.919
19.2265       223000       108.911
19.2351       223100       108.903
19.2437       223200       108.895
19.2523       223300       108.887
19.261       223400       108.879
19.2696       223500       108.871
19.2782       223600       108.864
19.2868       223700       108.856
19.2954       223800       108.848
19.3041       223900       108.84
19.3127       224000       108.832
19.3213       224100       108.824
19.3299       224200       108.816
19.3386       224300       108.808
19.3472       224400       108.801
19.3558       224500       108.793
19.3644       224600       108.785
19.373       224700       108.777
19.3817       224800       108.769
19.3903       224900       108.761
19.3989       225000       108.753
19.4075       225100       108.746
19.4162       225200       108.738
19.4248       225300       108.73
19.4334       225400       108.722
19.442       225500       108.714
19.4506       225600       108.706
19.4593       225700       108.699
19.4679       225800       108.691
19.4765       225900       108.683
19.4851       226000       108.675
19.4937       226100       108.667
19.5024       226200       108.66
19.511       226300       108.652
19.5196       226400       108.644
19.5282       226500       108.636
19.5369       226600       108.628
19.5455       226700       108.621
19.5541       226800       108.613
19.5627       226900       108.605
19.5713       227000       108.597
19.58       227100       108.59
19.5886       227200       108.582
19.5972       227300       108.574
19.6058       227400       108.566
19.6145       227500       108.559
19.6231       227600       108.551
19.6317       227700       108.543
19.6403       227800       108.535
19.6489       227900       108.528
19.6576       228000       108.52
19.6662       228100       108.512
19.6748       228200       108.504
19.6834       228300       108.497
19.692       228400       108.489
19.7007       228500       108.481
19.7093       228600       108.474
19.7179       228700       108.466
19.7265       228800       108.458
19.7352       228900       108.45
19.7438       229000       108.443
19.7524       229100       108.435
19.761       229200       108.427
19.7696       229300       108.42
19.7783       229400       108.412
19.7869       229500       108.404
19.7955       229600       108.397
19.8041       229700       108.389
19.8128       229800       108.381
19.8214       229900       108.374
19.83       230000       108.366
19.8386       230100       108.358
19.8472       230200       108.351
19.8559       230300       108.343
19.8645       230400       108.335
19.8731       230500       108.328
19.8817       230600       108.32
19.8903       230700       108.312
19.899       230800       108.305
19.9076       230900       108.297
19.9162       231000       108.29
19.9248       231100       108.282
19.9335       231200       108.274
19.9421       231300       108.267
19.9507       231400       108.259
19.9593       231500       108.252
19.9679       231600       108.244
19.9766       231700       108.236
19.9852       231800       108.229
19.9938       231900       108.221
20.0024       232000       108.214
20.0111       232100       108.206
20.0197       232200       108.198
20.0283       232300       108.191
20.0369       232400       108.183
20.0455       232500       108.176
20.0542       232600       108.168
20.0628       232700       108.161
20.0714       232800       108.153
20.08       232900       108.145
20.0886       233000       108.138
20.0973       233100       108.13
20.1059       233200       108.123
20.1145       233300       108.115
20.1231       233400       108.108
20.1318       233500       108.1
20.1404       233600       108.093
20.149       233700       108.085
20.1576       233800       108.078
20.1662       233900       108.07
20.1749       234000       108.063
20.1835       234100       108.055
20.1921       234200       108.048
20.2007       234300       108.04
20.2094       234400       108.033
20.218       234500       108.025
20.2266       234600       108.018
20.2352       234700       108.01
20.2438       234800       108.003
20.2525       234900       107.995
20.2611       235000       107.988
20.2697       235100       107.98
20.2783       235200       107.973
20.2869       235300       107.965
20.2956       235400       107.958
20.3042       235500       107.95
20.3128       235600       107.943
20.3214       235700       107.935
20.3301       235800       107.928
20.3387       235900       107.92
20.3473       236000       107.913
20.3559       236100       107.906
20.3645       236200       107.898
20.3732       236300       107.891
20.3818       236400       107.883
20.3904       236500       107.876
20.399       236600       107.868
20.4077       236700       107.861
20.4163       236800       107.854
20.4249       236900       107.846
20.4335       237000       107.839
20.4421       237100       107.831
20.4508       237200       107.824
20.4594       237300       107.816
20.468       237400       107.809
20.4766       237500       107.802
20.4852       237600       107.794
20.4939       237700       107.787
20.5025       237800       107.78
20.5111       237900       107.772
20.5197       238000       107.765
20.5284       238100       107.757
20.537       238200       107.75
20.5456       238300       107.743
20.5542       238400       107.735
20.5628       238500       107.728
20.5715       238600       107.721
20.5801       238700       107.713
20.5887       238800       107.706
20.5973       238900       107.698
20.606       239000       107.691
20.6146       239100       107.684
20.6232       239200       107.676
20.6318       239300       107.669
20.6404       239400       107.662
20.6491       239500       107.654
20.6577       239600       107.647
20.6663       239700       107.64
20.6749       239800       107.633
20.6835       239900       107.625
20.6922       240000       107.618
20.7008       240100       107.611
20.7094       240200       107.603
20.718       240300       107.596
20.7267       240400       107.589
20.7353       240500       107.581
20.7439       240600       107.574
20.7525       240700       107.567
20.7611       240800       107.559
20.7698       240900       107.552
20.7784       241000       107.545
20.787       241100       107.538
20.7956       241200       107.53
20.8043       241300       107.523
20.8129       241400       107.516
20.8215       241500       107.509
20.8301       241600       107.501
20.8387       241700       107.494
20.8474       241800       107.487
20.856       241900       107.48
20.8646       242000       107.472
20.8732       242100       107.465
20.8818       242200       107.458
20.8905       242300       107.451
20.8991       242400       107.443
20.9077       242500       107.436
20.9163       242600       107.429
20.925       242700       107.422
20.9336       242800       107.414
20.9422       242900       107.407
20.9508       243000       107.4
20.9594       243100       107.393
20.9681       243200       107.386
20.9767       243300       107.378
20.9853       243400       107.371
20.9939       243500       107.364
21.0026       243600       107.357
21.0112       243700       107.35
21.0198       243800       107.342
21.0284       243900       107.335
21.037       244000       107.328
21.0457       244100       107.321
21.0543       244200       107.314
21.0629       244300       107.307
21.0715       244400       107.299
21.0801       244500       107.292
21.0888       244600       107.285
21.0974       244700       107.278
21.106       244800       107.271
21.1146       244900       107.264
21.1233       245000       107.256
21.1319       245100       107.249
21.1405       245200       107.242
21.1491       245300       107.235
21.1577       245400       107.228
21.1664       245500       107.221
21.175       245600       107.214
21.1836       245700       107.206
21.1922       245800       107.199
21.2009       245900       107.192
21.2095       246000       107.185
21.2181       246100       107.178
21.2267       246200       107.171
21.2353       246300       107.164
21.244       246400       107.157
21.2526       246500       107.15
21.2612       246600       107.142
21.2698       246700       107.135
21.2784       246800       107.128
21.2871       246900       107.121
21.2957       247000       107.114
21.3043       247100       107.107
21.3129       247200       107.1
21.3216       247300       107.093
21.3302       247400       107.086
21.3388       247500       107.079
21.3474       247600       107.072
21.356       247700       107.065
21.3647       247800       107.057
21.3733       247900       107.05
21.3819       248000       107.043
21.3905       248100       107.036
21.3992       248200       107.029
21.4078       248300       107.022
21.4164       248400       107.015
21.425       248500       107.008
21.4336       248600       107.001
21.4423       248700       106.994
21.4509       248800       106.987
21.4595       248900       106.98
21.4681       249000       106.973
21.4767       249100       106.966
21.4854       249200       106.959
21.494       249300       106.952
21.5026       249400       106.945
21.5112       249500       106.938
21.5199       249600       106.931
21.5285       249700       106.924
21.5371       249800       106.917
21.5457       249900       106.91
21.5543       250000       106.903
21.563       250100       106.896
21.5716       250200       106.889
21.5802       250300       106.882
21.5888       250400       106.875
21.5975       250500       106.868
21.6061       250600       106.861
21.6147       250700       106.854
21.6233       250800       106.847
21.6319       250900       106.84
21.6406       251000       106.833
21.6492       251100       106.826
21.6578       251200       106.819
21.6664       251300       106.812
21.675       251400       106.805
21.6837       251500       106.798
21.6923       251600       106.791
21.7009       251700       106.784
21.7095       251800       106.777
21.7182       251900       106.771
21.7268       252000       106.764
21.7354       252100       106.757
21.744       252200       106.75
21.7526       252300       106.743
21.7613       252400       106.736
21.7699       252500       106.729
21.7785       252600       106.722
21.7871       252700       106.715
21.7958       252800       106.708
21.8044       252900       106.701
21.813       253000       106.694
21.8216       253100       106.688
21.8302       253200       106.681
21.8389       253300       106.674
21.8475       253400       106.667
21.8561       253500       106.66
21.8647       253600       106.653
21.8733       253700       106.646
21.882       253800       106.639
21.8906       253900       106.632
21.8992       254000       106.626
21.9078       254100       106.619
21.9165       254200       106.612
21.9251       254300       106.605
21.9337       254400       106.598
21.9423       254500       106.591
21.9509       254600       106.584
21.9596       254700       106.577
21.9682       254800       106.571
21.9768       254900       106.564
21.9854       255000       106.557
21.9941       255100       106.55
22.0027       255200       106.543
22.0113       255300       106.536
22.0199       255400       106.53
22.0285       255500       106.523
22.0372       255600       106.516
22.0458       255700       106.509
22.0544       255800       106.502
22.063       255900       106.495
22.0716       256000       106.489
22.0803       256100       106.482
22.0889       256200       106.475
22.0975       256300       106.468
22.1061       256400       106.461
22.1148       256500       106.455
22.1234       256600       106.448
22.132       256700       106.441
22.1406       256800       106.434
22.1492       256900       106.427
22.1579       257000       106.421
22.1665       257100       106.414
22.1751       257200       106.407
22.1837       257300       106.4
22.1924       257400       106.394
22.201       257500       106.387
22.2096       257600       106.38
22.2182       257700       106.373
22.2268       257800       106.366
22.2355       257900       106.36
22.2441       258000       106.353
22.2527       258100       106.346
22.2613       258200       106.339
22.2699       258300       106.333
22.2786       258400       106.326
22.2872       258500       106.319
22.2958       258600       106.312
22.3044       258700       106.306
22.3131       258800       106.299
22.3217       258900       106.292
22.3303       259000       106.285
22.3389       259100       106.279
22.3475       259200       106.272
22.3562       259300       106.265
22.3648       259400       106.259
22.3734       259500       106.252
22.382       259600       106.245
22.3907       259700       106.238
22.3993       259800       106.232
22.4079       259900       106.225
22.4165       260000       106.218
22.4251       260100       106.212
22.4338       260200       106.205
22.4424       260300       106.198
22.451       260400       106.192
22.4596       260500       106.185
22.4682       260600       106.178
22.4769       260700       106.171
22.4855       260800       106.165
22.4941       260900       106.158
22.5027       261000       106.151
22.5114       261100       106.145
22.52       261200       106.138
22.5286       261300       106.131
22.5372       261400       106.125
22.5458       261500       106.118
22.5545       261600       106.111
22.5631       261700       106.105
22.5717       261800       106.098
22.5803       261900       106.091
22.589       262000       106.085
22.5976       262100       106.078
22.6062       262200       106.072
22.6148       262300       106.065
22.6234       262400       106.058
22.6321       262500       106.052
22.6407       262600       106.045
22.6493       262700       106.038
22.6579       262800       106.032
22.6665       262900       106.025
22.6752       263000       106.019
22.6838       263100       106.012
22.6924       263200       106.005
22.701       263300       105.999
22.7097       263400       105.992
22.7183       263500       105.985
22.7269       263600       105.979
22.7355       263700       105.972
22.7441       263800       105.966
22.7528       263900       105.959
22.7614       264000       105.952
22.77       264100       105.946
22.7786       264200       105.939
22.7873       264300       105.933
22.7959       264400       105.926
22.8045       264500       105.92
22.8131       264600       105.913
22.8217       264700       105.906
22.8304       264800       105.9
22.839       264900       105.893
22.8476       265000       105.887
22.8562       265100       105.88
22.8648       265200       105.874
22.8735       265300       105.867
22.8821       265400       105.86
22.8907       265500       105.854
22.8993       265600       105.847
22.908       265700       105.841
22.9166       265800       105.834
22.9252       265900       105.828
22.9338       266000       105.821
22.9424       266100       105.815
22.9511       266200       105.808
22.9597       266300       105.802
22.9683       266400       105.795
22.9769       266500       105.788
22.9856       266600       105.782
22.9942       266700       105.775
23.0028       266800       105.769
23.0114       266900       105.762
23.02       267000       105.756
23.0287       267100       105.749
23.0373       267200       105.743
23.0459       267300       105.736
23.0545       267400       105.73
23.0631       267500       105.723
23.0718       267600       105.717
23.0804       267700       105.71
23.089       267800       105.704
23.0976       267900       105.697
23.1063       268000       105.691
23.1149       268100       105.684
23.1235       268200       105.678
23.1321       268300       105.671
23.1407       268400       105.665
23.1494       268500       105.659
23.158       268600       105.652
23.1666       268700       105.646
23.1752       268800       105.639
23.1839       268900       105.633
23.1925       269000       105.626
23.2011       269100       105.62
23.2097       269200       105.613
23.2183       269300       105.607
23.227       269400       105.6
23.2356       269500       105.594
23.2442       269600       105.588
23.2528       269700       105.581
23.2614       269800       105.575
23.2701       269900       105.568
23.2787       270000       105.562
23.2873       270100       105.555
23.2959       270200       105.549
23.3046       270300       105.542
23.3132       270400       105.536
23.3218       270500       105.53
23.3304       270600       105.523
23.339       270700       105.517
23.3477       270800       105.51
23.3563       270900       105.504
23.3649       271000       105.498
23.3735       271100       105.491
23.3822       271200       105.485
23.3908       271300       105.478
23.3994       271400       105.472
23.408       271500       105.466
23.4166       271600       105.459
23.4253       271700       105.453
23.4339       271800       105.446
23.4425       271900       105.44
23.4511       272000       105.434
23.4597       272100       105.427
23.4684       272200       105.421
23.477       272300       105.414
23.4856       272400       105.408
23.4942       272500       105.402
23.5029       272600       105.395
23.5115       272700       105.389
23.5201       272800       105.383
23.5287       272900       105.376
23.5373       273000       105.37
23.546       273100       105.364
23.5546       273200       105.357
23.5632       273300       105.351
23.5718       273400       105.345
23.5805       273500       105.338
23.5891       273600       105.332
23.5977       273700       105.326
23.6063       273800       105.319
23.6149       273900       105.313
23.6236       274000       105.306
23.6322       274100       105.3
23.6408       274200       105.294
23.6494       274300       105.288
23.658       274400       105.281
23.6667       274500       105.275
23.6753       274600       105.269
23.6839       274700       105.262
23.6925       274800       105.256
23.7012       274900       105.25
23.7098       275000       105.243
23.7184       275100       105.237
23.727       275200       105.231
23.7356       275300       105.224
23.7443       275400       105.218
23.7529       275500       105.212
23.7615       275600       105.206
23.7701       275700       105.199
23.7788       275800       105.193
23.7874       275900       105.187
23.796       276000       105.18
23.8046       276100       105.174
23.8132       276200       105.168
23.8219       276300       105.162
23.8305       276400       105.155
23.8391       276500       105.149
23.8477       276600       105.143
23.8563       276700       105.136
23.865       276800       105.13
23.8736       276900       105.124
23.8822       277000       105.118
23.8908       277100       105.111
23.8995       277200       105.105
23.9081       277300       105.099
23.9167       277400       105.093
23.9253       277500       105.086
23.9339       277600       105.08
23.9426       277700       105.074
23.9512       277800       105.068
23.9598       277900       105.061
23.9684       278000       105.055
23.9771       278100       105.049
23.9857       278200       105.043
23.9943       278300       105.037
24.0029       278400       105.03
24.0115       278500       105.024
24.0202       278600       105.018
24.0288       278700       105.012
24.0374       278800       105.005
24.046       278900       104.999
24.0546       279000       104.993
24.0633       279100       104.987
24.0719       279200       104.981
24.0805       279300       104.974
24.0891       279400       104.968
24.0978       279500       104.962
24.1064       279600       104.956
24.115       279700       104.95
24.1236       279800       104.943
24.1322       279900       104.937
24.1409       280000       104.931
24.1495       280100       104.925
24.1581       280200       104.919
24.1667       280300       104.913
24.1754       280400       104.906
24.184       280500       104.9
24.1926       280600       104.894
24.2012       280700       104.888
24.2098       280800       104.882
24.2185       280900       104.876
24.2271       281000       104.869
24.2357       281100       104.863
24.2443       281200       104.857
24.2529       281300       104.851
24.2616       281400       104.845
24.2702       281500       104.839
24.2788       281600       104.832
24.2874       281700       104.826
24.2961       281800       104.82
24.3047       281900       104.814
24.3133       282000       104.808
24.3219       282100       104.802
24.3305       282200       104.796
24.3392       282300       104.79
24.3478       282400       104.783
24.3564       282500       104.777
24.365       282600       104.771
24.3737       282700       104.765
24.3823       282800       104.759
24.3909       282900       104.753
24.3995       283000       104.747
24.4081       283100       104.741
24.4168       283200       104.734
24.4254       283300       104.728
24.434       283400       104.722
24.4426       283500       104.716
24.4512       283600       104.71
24.4599       283700       104.704
24.4685       283800       104.698
24.4771       283900       104.692
24.4857       284000       104.686
24.4944       284100       104.68
24.503       284200       104.673
24.5116       284300       104.667
24.5202       284400       104.661
24.5288       284500       104.655
24.5375       284600       104.649
24.5461       284700       104.643
24.5547       284800       104.637
24.5633       284900       104.631
24.572       285000       104.625
24.5806       285100       104.619
24.5892       285200       104.613
24.5978       285300       104.607
24.6064       285400       104.601
24.6151       285500       104.595
24.6237       285600       104.589
24.6323       285700       104.582
24.6409       285800       104.576
24.6495       285900       104.57
24.6582       286000       104.564
24.6668       286100       104.558
24.6754       286200       104.552
24.684       286300       104.546
24.6927       286400       104.54
24.7013       286500       104.534
24.7099       286600       104.528
24.7185       286700       104.522
24.7271       286800       104.516
24.7358       286900       104.51
24.7444       287000       104.504
24.753       287100       104.498
24.7616       287200       104.492
24.7703       287300       104.486
24.7789       287400       104.48
24.7875       287500       104.474
24.7961       287600       104.468
24.8047       287700       104.462
24.8134       287800       104.456
24.822       287900       104.45
24.8306       288000       104.444
24.8392       288100       104.438
24.8478       288200       104.432
24.8565       288300       104.426
24.8651       288400       104.42
24.8737       288500       104.414
24.8823       288600       104.408
24.891       288700       104.402
24.8996       288800       104.396
24.9082       288900       104.39
24.9168       289000       104.384
24.9254       289100       104.378
24.9341       289200       104.372
24.9427       289300       104.366
24.9513       289400       104.36
24.9599       289500       104.354
24.9686       289600       104.348
24.9772       289700       104.342
24.9858       289800       104.336
24.9944       289900       104.33
25.003       290000       104.324
25.0117       290100       104.319
25.0203       290200       104.313
25.0289       290300       104.307
25.0375       290400       104.301
25.0461       290500       104.295
25.0548       290600       104.289
25.0634       290700       104.283
25.072       290800       104.277
25.0806       290900       104.271
25.0893       291000       104.265
25.0979       291100       104.259
25.1065       291200       104.253
25.1151       291300       104.247
25.1237       291400       104.241
25.1324       291500       104.235
25.141       291600       104.23
25.1496       291700       104.224
25.1582       291800       104.218
25.1669       291900       104.212
25.1755       292000       104.206
25.1841       292100       104.2
25.1927       292200       104.194
25.2013       292300       104.188
25.21       292400       104.182
25.2186       292500       104.176
25.2272       292600       104.17
25.2358       292700       104.165
25.2444       292800       104.159
25.2531       292900       104.153
25.2617       293000       104.147
25.2703       293100       104.141
25.2789       293200       104.135
25.2876       293300       104.129
25.2962       293400       104.123
25.3048       293500       104.118
25.3134       293600       104.112
25.322       293700       104.106
25.3307       293800       104.1
25.3393       293900       104.094
25.3479       294000       104.088
25.3565       294100       104.082
25.3652       294200       104.076
25.3738       294300       104.071
25.3824       294400       104.065
25.391       294500       104.059
25.3996       294600       104.053
25.4083       294700       104.047
25.4169       294800       104.041
25.4255       294900       104.035
25.4341       295000       104.03
25.4427       295100       104.024
25.4514       295200       104.018
25.46       295300       104.012
25.4686       295400       104.006
25.4772       295500       104
25.4859       295600       103.995
25.4945       295700       103.989
25.5031       295800       103.983
25.5117       295900       103.977
25.5203       296000       103.971
25.529       296100       103.965
25.5376       296200       103.96
25.5462       296300       103.954
25.5548       296400       103.948
25.5635       296500       103.942
25.5721       296600       103.936
25.5807       296700       103.931
25.5893       296800       103.925
25.5979       296900       103.919
25.6066       297000       103.913
25.6152       297100       103.907
25.6238       297200       103.902
25.6324       297300       103.896
25.641       297400       103.89
25.6497       297500       103.884
25.6583       297600       103.878
25.6669       297700       103.873
25.6755       297800       103.867
25.6842       297900       103.861
25.6928       298000       103.855
25.7014       298100       103.85
25.71       298200       103.844
25.7186       298300       103.838
25.7273       298400       103.832
25.7359       298500       103.826
25.7445       298600       103.821
25.7531       298700       103.815
25.7618       298800       103.809
25.7704       298900       103.803
25.779       299000       103.798
25.7876       299100       103.792
25.7962       299200       103.786
25.8049       299300       103.78
25.8135       299400       103.775
25.8221       299500       103.769
25.8307       299600       103.763
25.8393       299700       103.757
25.848       299800       103.752
25.8566       299900       103.746
25.8652       300000       103.74
25.8738       300100       103.734
25.8825       300200       103.729
25.8911       300300       103.723
25.8997       300400       103.717
25.9083       300500       103.711
25.9169       300600       103.706
25.9256       300700       103.7
25.9342       300800       103.694
25.9428       300900       103.689
25.9514       301000       103.683
25.9601       301100       103.677
25.9687       301200       103.671
25.9773       301300       103.666
25.9859       301400       103.66
25.9945       301500       103.654
26.0032       301600       103.649
26.0118       301700       103.643
26.0204       301800       103.637
26.029       301900       103.632
26.0376       302000       103.626
26.0463       302100       103.62
26.0549       302200       103.614
26.0635       302300       103.609
26.0721       302400       103.603
26.0808       302500       103.597
26.0894       302600       103.592
26.098       302700       103.586
26.1066       302800       103.58
26.1152       302900       103.575
26.1239       303000       103.569
26.1325       303100       103.563
26.1411       303200       103.558
26.1497       303300       103.552
26.1584       303400       103.546
26.167       303500       103.541
26.1756       303600       103.535
26.1842       303700       103.529
26.1928       303800       103.524
26.2015       303900       103.518
26.2101       304000       103.512
26.2187       304100       103.507
26.2273       304200       103.501
26.2359       304300       103.495
26.2446       304400       103.49
26.2532       304500       103.484
26.2618       304600       103.478
26.2704       304700       103.473
26.2791       304800       103.467
26.2877       304900       103.462
26.2963       305000       103.456
26.3049       305100       103.45
26.3135       305200       103.445
26.3222       305300       103.439
26.3308       305400       103.433
26.3394       305500       103.428
26.348       305600       103.422
26.3567       305700       103.416
26.3653       305800       103.411
26.3739       305900       103.405
26.3825       306000       103.4
26.3911       306100       103.394
26.3998       306200       103.388
26.4084       306300       103.383
26.417       306400       103.377
26.4256       306500       103.372
26.4342       306600       103.366
26.4429       306700       103.36
26.4515       306800       103.355
26.4601       306900       103.349
26.4687       307000       103.344
26.4774       307100       103.338
26.486       307200       103.332
26.4946       307300       103.327
26.5032       307400       103.321
26.5118       307500       103.316
26.5205       307600       103.31
26.5291       307700       103.304
26.5377       307800       103.299
26.5463       307900       103.293
26.555       308000       103.288
26.5636       308100       103.282
26.5722       308200       103.277
26.5808       308300       103.271
26.5894       308400       103.265
26.5981       308500       103.26
26.6067       308600       103.254
26.6153       308700       103.249
26.6239       308800       103.243
26.6325       308900       103.238
26.6412       309000       103.232
26.6498       309100       103.227
26.6584       309200       103.221
26.667       309300       103.215
26.6757       309400       103.21
26.6843       309500       103.204
26.6929       309600       103.199
26.7015       309700       103.193
26.7101       309800       103.188
26.7188       309900       103.182
26.7274       310000       103.177
26.736       310100       103.171
26.7446       310200       103.166
26.7533       310300       103.16
26.7619       310400       103.154
26.7705       310500       103.149
26.7791       310600       103.143
26.7877       310700       103.138
26.7964       310800       103.132
26.805       310900       103.127
26.8136       311000       103.121
26.8222       311100       103.116
26.8308       311200       103.11
26.8395       311300       103.105
26.8481       311400       103.099
26.8567       311500       103.094
26.8653       311600       103.088
26.874       311700       103.083
26.8826       311800       103.077
26.8912       311900       103.072
26.8998       312000       103.066
26.9084       312100       103.061
26.9171       312200       103.055
26.9257       312300       103.05
26.9343       312400       103.044
26.9429       312500       103.039
26.9516       312600       103.033
26.9602       312700       103.028
26.9688       312800       103.022
26.9774       312900       103.017
26.986       313000       103.011
26.9947       313100       103.006
27.0033       313200       103
27.0119       313300       102.995
27.0205       313400       102.99
27.0291       313500       102.984
27.0378       313600       102.979
27.0464       313700       102.973
27.055       313800       102.968
27.0636       313900       102.962
27.0723       314000       102.957
27.0809       314100       102.951
27.0895       314200       102.946
27.0981       314300       102.94
27.1067       314400       102.935
27.1154       314500       102.929
27.124       314600       102.924
27.1326       314700       102.919
27.1412       314800       102.913
27.1499       314900       102.908
27.1585       315000       102.902
27.1671       315100       102.897
27.1757       315200       102.891
27.1843       315300       102.886
27.193       315400       102.88
27.2016       315500       102.875
27.2102       315600       102.87
27.2188       315700       102.864
27.2274       315800       102.859
27.2361       315900       102.853
27.2447       316000       102.848
27.2533       316100       102.842
27.2619       316200       102.837
27.2706       316300       102.832
27.2792       316400       102.826
27.2878       316500       102.821
27.2964       316600       102.815
27.305       316700       102.81
27.3137       316800       102.805
27.3223       316900       102.799
27.3309       317000       102.794
27.3395       317100       102.788
27.3482       317200       102.783
27.3568       317300       102.778
27.3654       317400       102.772
27.374       317500       102.767
27.3826       317600       102.761
27.3913       317700       102.756
27.3999       317800       102.751
27.4085       317900       102.745
27.4171       318000       102.74
27.4257       318100       102.734
27.4344       318200       102.729
27.443       318300       102.724
27.4516       318400       102.718
27.4602       318500       102.713
27.4689       318600       102.708
27.4775       318700       102.702
27.4861       318800       102.697
27.4947       318900       102.691
27.5033       319000       102.686
27.512       319100       102.681
27.5206       319200       102.675
27.5292       319300       102.67
27.5378       319400       102.665
27.5465       319500       102.659
27.5551       319600       102.654
27.5637       319700       102.649
27.5723       319800       102.643
27.5809       319900       102.638
27.5896       320000       102.633
27.5982       320100       102.627
27.6068       320200       102.622
27.6154       320300       102.616
27.624       320400       102.611
27.6327       320500       102.606
27.6413       320600       102.6
27.6499       320700       102.595
27.6585       320800       102.59
27.6672       320900       102.584
27.6758       321000       102.579
27.6844       321100       102.574
27.693       321200       102.568
27.7016       321300       102.563
27.7103       321400       102.558
27.7189       321500       102.552
27.7275       321600       102.547
27.7361       321700       102.542
27.7448       321800       102.537
27.7534       321900       102.531
27.762       322000       102.526
27.7706       322100       102.521
27.7792       322200       102.515
27.7879       322300       102.51
27.7965       322400       102.505
27.8051       322500       102.499
27.8137       322600       102.494
27.8223       322700       102.489
27.831       322800       102.483
27.8396       322900       102.478
27.8482       323000       102.473
27.8568       323100       102.468
27.8655       323200       102.462
27.8741       323300       102.457
27.8827       323400       102.452
27.8913       323500       102.446
27.8999       323600       102.441
27.9086       323700       102.436
27.9172       323800       102.431
27.9258       323900       102.425
27.9344       324000       102.42
27.9431       324100       102.415
27.9517       324200       102.409
27.9603       324300       102.404
27.9689       324400       102.399
27.9775       324500       102.394
27.9862       324600       102.388
27.9948       324700       102.383
28.0034       324800       102.378
28.012       324900       102.373
28.0206       325000       102.367
28.0293       325100       102.362
28.0379       325200       102.357
28.0465       325300       102.352
28.0551       325400       102.346
28.0638       325500       102.341
28.0724       325600       102.336
28.081       325700       102.331
28.0896       325800       102.325
28.0982       325900       102.32
28.1069       326000       102.315
28.1155       326100       102.31
28.1241       326200       102.304
28.1327       326300       102.299
28.1414       326400       102.294
28.15       326500       102.289
28.1586       326600       102.283
28.1672       326700       102.278
28.1758       326800       102.273
28.1845       326900       102.268
28.1931       327000       102.263
28.2017       327100       102.257
28.2103       327200       102.252
28.2189       327300       102.247
28.2276       327400       102.242
28.2362       327500       102.236
28.2448       327600       102.231
28.2534       327700       102.226
28.2621       327800       102.221
28.2707       327900       102.216
28.2793       328000       102.21
28.2879       328100       102.205
28.2965       328200       102.2
28.3052       328300       102.195
28.3138       328400       102.19
28.3224       328500       102.184
28.331       328600       102.179
28.3397       328700       102.174
28.3483       328800       102.169
28.3569       328900       102.164
28.3655       329000       102.158
28.3741       329100       102.153
28.3828       329200       102.148
28.3914       329300       102.143
28.4       329400       102.138
28.4086       329500       102.132
28.4172       329600       102.127
28.4259       329700       102.122
28.4345       329800       102.117
28.4431       329900       102.112
28.4517       330000       102.107
28.4604       330100       102.101
28.469       330200       102.096
28.4776       330300       102.091
28.4862       330400       102.086
28.4948       330500       102.081
28.5035       330600       102.076
28.5121       330700       102.07
28.5207       330800       102.065
28.5293       330900       102.06
28.538       331000       102.055
28.5466       331100       102.05
28.5552       331200       102.045
28.5638       331300       102.039
28.5724       331400       102.034
28.5811       331500       102.029
28.5897       331600       102.024
28.5983       331700       102.019
28.6069       331800       102.014
28.6155       331900       102.009
28.6242       332000       102.003
28.6328       332100       101.998
28.6414       332200       101.993
28.65       332300       101.988
28.6587       332400       101.983
28.6673       332500       101.978
28.6759       332600       101.973
28.6845       332700       101.968
28.6931       332800       101.962
28.7018       332900       101.957
28.7104       333000       101.952
28.719       333100       101.947
28.7276       333200       101.942
28.7363       333300       101.937
28.7449       333400       101.932
28.7535       333500       101.927
28.7621       333600       101.921
28.7707       333700       101.916
28.7794       333800       101.911
28.788       333900       101.906
28.7966       334000       101.901
28.8052       334100       101.896
28.8138       334200       101.891
28.8225       334300       101.886
28.8311       334400       101.881
28.8397       334500       101.876
28.8483       334600       101.87
28.857       334700       101.865
28.8656       334800       101.86
28.8742       334900       101.855
28.8828       335000       101.85
28.8914       335100       101.845
28.9001       335200       101.84
28.9087       335300       101.835
28.9173       335400       101.83
28.9259       335500       101.825
28.9346       335600       101.82
28.9432       335700       101.814
28.9518       335800       101.809
28.9604       335900       101.804
28.969       336000       101.799
28.9777       336100       101.794
28.9863       336200       101.789
28.9949       336300       101.784
29.0035       336400       101.779
29.0121       336500       101.774
29.0208       336600       101.769
29.0294       336700       101.764
29.038       336800       101.759
29.0466       336900       101.754
29.0553       337000       101.749
29.0639       337100       101.744
29.0725       337200       101.739
29.0811       337300       101.733
29.0897       337400       101.728
29.0984       337500       101.723
29.107       337600       101.718
29.1156       337700       101.713
29.1242       337800       101.708
29.1329       337900       101.703
29.1415       338000       101.698
29.1501       338100       101.693
29.1587       338200       101.688
29.1673       338300       101.683
29.176       338400       101.678
29.1846       338500       101.673
29.1932       338600       101.668
29.2018       338700       101.663
29.2104       338800       101.658
29.2191       338900       101.653
29.2277       339000       101.648
29.2363       339100       101.643
29.2449       339200       101.638
29.2536       339300       101.633
29.2622       339400       101.628
29.2708       339500       101.623
29.2794       339600       101.618
29.288       339700       101.613
29.2967       339800       101.608
29.3053       339900       101.603
29.3139       340000       101.598
29.3225       340100       101.593
29.3312       340200       101.588
29.3398       340300       101.583
29.3484       340400       101.578
29.357       340500       101.573
29.3656       340600       101.568
29.3743       340700       101.563
29.3829       340800       101.558
29.3915       340900       101.553
29.4001       341000       101.548
29.4087       341100       101.543
29.4174       341200       101.538
29.426       341300       101.533
29.4346       341400       101.528
29.4432       341500       101.523
29.4519       341600       101.518
29.4605       341700       101.513
29.4691       341800       101.508
29.4777       341900       101.503
29.4863       342000       101.498
29.495       342100       101.493
29.5036       342200       101.488
29.5122       342300       101.483
29.5208       342400       101.478
29.5295       342500       101.473
29.5381       342600       101.468
29.5467       342700       101.463
29.5553       342800       101.458
29.5639       342900       101.453
29.5726       343000       101.448
29.5812       343100       101.443
29.5898       343200       101.438
29.5984       343300       101.433
29.607       343400       101.428
29.6157       343500       101.423
29.6243       343600       101.418
29.6329       343700       101.414
29.6415       343800       101.409
29.6502       343900       101.404
29.6588       344000       101.399
29.6674       344100       101.394
29.676       344200       101.389
29.6846       344300       101.384
29.6933       344400       101.379
29.7019       344500       101.374
29.7105       344600       101.369
29.7191       344700       101.364
29.7278       344800       101.359
29.7364       344900       101.354
29.745       345000       101.349
29.7536       345100       101.344
29.7622       345200       101.339
29.7709       345300       101.335
29.7795       345400       101.33
29.7881       345500       101.325
29.7967       345600       101.32
29.8053       345700       101.315
29.814       345800       101.31
29.8226       345900       101.305
29.8312       346000       101.3
29.8398       346100       101.295
29.8485       346200       101.29
29.8571       346300       101.285
29.8657       346400       101.28
29.8743       346500       101.276
29.8829       346600       101.271
29.8916       346700       101.266
29.9002       346800       101.261
29.9088       346900       101.256
29.9174       347000       101.251
29.9261       347100       101.246
29.9347       347200       101.241
29.9433       347300       101.236
29.9519       347400       101.231
29.9605       347500       101.227
29.9692       347600       101.222
29.9778       347700       101.217
29.9864       347800       101.212
29.995       347900       101.207
30.0036       348000       101.202
30.0123       348100       101.197
30.0209       348200       101.192
30.0295       348300       101.188
30.0381       348400       101.183
30.0468       348500       101.178
30.0554       348600       101.173
30.064       348700       101.168
30.0726       348800       101.163
30.0812       348900       101.158
30.0899       349000       101.153
30.0985       349100       101.149
30.1071       349200       101.144
30.1157       349300       101.139
30.1244       349400       101.134
30.133       349500       101.129
30.1416       349600       101.124
30.1502       349700       101.119
30.1588       349800       101.115
30.1675       349900       101.11
30.1761       350000       101.105
30.1847       350100       101.1
30.1933       350200       101.095
30.2019       350300       101.09
30.2106       350400       101.085
30.2192       350500       101.081
30.2278       350600       101.076
30.2364       350700       101.071
30.2451       350800       101.066
30.2537       350900       101.061
30.2623       351000       101.056
30.2709       351100       101.052
30.2795       351200       101.047
30.2882       351300       101.042
30.2968       351400       101.037
30.3054       351500       101.032
30.314       351600       101.027
30.3227       351700       101.023
30.3313       351800       101.018
30.3399       351900       101.013
30.3485       352000       101.008
30.3571       352100       101.003
30.3658       352200       100.998
30.3744       352300       100.994
30.383       352400       100.989
30.3916       352500       100.984
30.4002       352600       100.979
30.4089       352700       100.974
30.4175       352800       100.97
30.4261       352900       100.965
30.4347       353000       100.96
30.4434       353100       100.955
30.452       353200       100.95
30.4606       353300       100.946
30.4692       353400       100.941
30.4778       353500       100.936
30.4865       353600       100.931
30.4951       353700       100.926
30.5037       353800       100.922
30.5123       353900       100.917
30.521       354000       100.912
30.5296       354100       100.907
30.5382       354200       100.902
30.5468       354300       100.898
30.5554       354400       100.893
30.5641       354500       100.888
30.5727       354600       100.883
30.5813       354700       100.878
30.5899       354800       100.874
30.5985       354900       100.869
30.6072       355000       100.864
30.6158       355100       100.859
30.6244       355200       100.855
30.633       355300       100.85
30.6417       355400       100.845
30.6503       355500       100.84
30.6589       355600       100.835
30.6675       355700       100.831
30.6761       355800       100.826
30.6848       355900       100.821
30.6934       356000       100.816
30.702       356100       100.812
30.7106       356200       100.807
30.7193       356300       100.802
30.7279       356400       100.797
30.7365       356500       100.793
30.7451       356600       100.788
30.7537       356700       100.783
30.7624       356800       100.778
30.771       356900       100.774
30.7796       357000       100.769
30.7882       357100       100.764
30.7968       357200       100.759
30.8055       357300       100.755
30.8141       357400       100.75
30.8227       357500       100.745
30.8313       357600       100.74
30.84       357700       100.736
30.8486       357800       100.731
30.8572       357900       100.726
30.8658       358000       100.721
30.8744       358100       100.717
30.8831       358200       100.712
30.8917       358300       100.707
30.9003       358400       100.702
30.9089       358500       100.698
30.9176       358600       100.693
30.9262       358700       100.688
30.9348       358800       100.684
30.9434       358900       100.679
30.952       359000       100.674
30.9607       359100       100.669
30.9693       359200       100.665
30.9779       359300       100.66
30.9865       359400       100.655
30.9951       359500       100.651
31.0038       359600       100.646
31.0124       359700       100.641
31.021       359800       100.636
31.0296       359900       100.632
31.0383       360000       100.627
31.0469       360100       100.622
31.0555       360200       100.618
31.0641       360300       100.613
31.0727       360400       100.608
31.0814       360500       100.604
31.09       360600       100.599
31.0986       360700       100.594
31.1072       360800       100.589
31.1159       360900       100.585
31.1245       361000       100.58
31.1331       361100       100.575
31.1417       361200       100.571
31.1503       361300       100.566
31.159       361400       100.561
31.1676       361500       100.557
31.1762       361600       100.552
31.1848       361700       100.547
31.1934       361800       100.543
31.2021       361900       100.538
31.2107       362000       100.533
31.2193       362100       100.529
31.2279       362200       100.524
31.2366       362300       100.519
31.2452       362400       100.514
31.2538       362500       100.51
31.2624       362600       100.505
31.271       362700       100.5
31.2797       362800       100.496
31.2883       362900       100.491
31.2969       363000       100.486
31.3055       363100       100.482
31.3142       363200       100.477
31.3228       363300       100.473
31.3314       363400       100.468
31.34       363500       100.463
31.3486       363600       100.459
31.3573       363700       100.454
31.3659       363800       100.449
31.3745       363900       100.445
31.3831       364000       100.44
31.3917       364100       100.435
31.4004       364200       100.431
31.409       364300       100.426
31.4176       364400       100.421
31.4262       364500       100.417
31.4349       364600       100.412
31.4435       364700       100.407
31.4521       364800       100.403
31.4607       364900       100.398
31.4693       365000       100.394
31.478       365100       100.389
31.4866       365200       100.384
31.4952       365300       100.38
31.5038       365400       100.375
31.5125       365500       100.37
31.5211       365600       100.366
31.5297       365700       100.361
31.5383       365800       100.356
31.5469       365900       100.352
31.5556       366000       100.347
31.5642       366100       100.343
31.5728       366200       100.338
31.5814       366300       100.333
31.59       366400       100.329
31.5987       366500       100.324
31.6073       366600       100.32
31.6159       366700       100.315
31.6245       366800       100.31
31.6332       366900       100.306
31.6418       367000       100.301
31.6504       367100       100.296
31.659       367200       100.292
31.6676       367300       100.287
31.6763       367400       100.283
31.6849       367500       100.278
31.6935       367600       100.273
31.7021       367700       100.269
31.7108       367800       100.264
31.7194       367900       100.26
31.728       368000       100.255
31.7366       368100       100.25
31.7452       368200       100.246
31.7539       368300       100.241
31.7625       368400       100.237
31.7711       368500       100.232
31.7797       368600       100.228
31.7883       368700       100.223
31.797       368800       100.218
31.8056       368900       100.214
31.8142       369000       100.209
31.8228       369100       100.205
31.8315       369200       100.2
31.8401       369300       100.195
31.8487       369400       100.191
31.8573       369500       100.186
31.8659       369600       100.182
31.8746       369700       100.177
31.8832       369800       100.173
31.8918       369900       100.168
31.9004       370000       100.163
31.9091       370100       100.159
31.9177       370200       100.154
31.9263       370300       100.15
31.9349       370400       100.145
31.9435       370500       100.141
31.9522       370600       100.136
31.9608       370700       100.132
31.9694       370800       100.127
31.978       370900       100.122
31.9866       371000       100.118
31.9953       371100       100.113
32.0039       371200       100.109
32.0125       371300       100.104
32.0211       371400       100.1
32.0298       371500       100.095
32.0384       371600       100.091
32.047       371700       100.086
32.0556       371800       100.081
32.0642       371900       100.077
32.0729       372000       100.072
32.0815       372100       100.068
32.0901       372200       100.063
32.0987       372300       100.059
32.1074       372400       100.054
32.116       372500       100.05
32.1246       372600       100.045
32.1332       372700       100.041
32.1418       372800       100.036
32.1505       372900       100.032
32.1591       373000       100.027
32.1677       373100       100.022
32.1763       373200       100.018
32.1849       373300       100.013
32.1936       373400       100.009
32.2022       373500       100.004
32.2108       373600       99.9999
32.2194       373700       99.9954
32.2281       373800       99.9908
32.2367       373900       99.9863
32.2453       374000       99.9818
32.2539       374100       99.9773
32.2625       374200       99.9728
32.2712       374300       99.9683
32.2798       374400       99.9638
32.2884       374500       99.9593
32.297       374600       99.9548
32.3057       374700       99.9502
32.3143       374800       99.9457
32.3229       374900       99.9412
32.3315       375000       99.9367
32.3401       375100       99.9322
32.3488       375200       99.9277
32.3574       375300       99.9232
32.366       375400       99.9187
32.3746       375500       99.9142
32.3832       375600       99.9098
32.3919       375700       99.9053
32.4005       375800       99.9008
32.4091       375900       99.8963
32.4177       376000       99.8918
32.4264       376100       99.8873
32.435       376200       99.8828
32.4436       376300       99.8783
32.4522       376400       99.8738
32.4608       376500       99.8694
32.4695       376600       99.8649
32.4781       376700       99.8604
32.4867       376800       99.8559
32.4953       376900       99.8514
32.504       377000       99.847
32.5126       377100       99.8425
32.5212       377200       99.838
32.5298       377300       99.8336
32.5384       377400       99.8291
32.5471       377500       99.8246
32.5557       377600       99.8201
32.5643       377700       99.8157
32.5729       377800       99.8112
32.5815       377900       99.8067
32.5902       378000       99.8023
32.5988       378100       99.7978
32.6074       378200       99.7934
32.616       378300       99.7889
32.6247       378400       99.7844
32.6333       378500       99.78
32.6419       378600       99.7755
32.6505       378700       99.7711
32.6591       378800       99.7666
32.6678       378900       99.7622
32.6764       379000       99.7577
32.685       379100       99.7533
32.6936       379200       99.7488
32.7023       379300       99.7444
32.7109       379400       99.7399
32.7195       379500       99.7355
32.7281       379600       99.731
32.7367       379700       99.7266
32.7454       379800       99.7222
32.754       379900       99.7177
32.7626       380000       99.7133
32.7712       380100       99.7089
32.7798       380200       99.7044
32.7885       380300       99.7
32.7971       380400       99.6956
32.8057       380500       99.6911
32.8143       380600       99.6867
32.823       380700       99.6823
32.8316       380800       99.6778
32.8402       380900       99.6734
32.8488       381000       99.669
32.8574       381100       99.6646
32.8661       381200       99.6601
32.8747       381300       99.6557
32.8833       381400       99.6513
32.8919       381500       99.6469
32.9006       381600       99.6425
32.9092       381700       99.638
32.9178       381800       99.6336
32.9264       381900       99.6292
32.935       382000       99.6248
32.9437       382100       99.6204
32.9523       382200       99.616
32.9609       382300       99.6116
32.9695       382400       99.6072
32.9781       382500       99.6028
32.9868       382600       99.5984
32.9954       382700       99.594
33.004       382800       99.5896
33.0126       382900       99.5852
33.0213       383000       99.5808
33.0299       383100       99.5764
33.0385       383200       99.572
33.0471       383300       99.5676
33.0557       383400       99.5632
33.0644       383500       99.5588
33.073       383600       99.5544
33.0816       383700       99.55
33.0902       383800       99.5456
33.0989       383900       99.5412
33.1075       384000       99.5368
33.1161       384100       99.5324
33.1247       384200       99.5281
33.1333       384300       99.5237
33.142       384400       99.5193
33.1506       384500       99.5149
33.1592       384600       99.5105
33.1678       384700       99.5061
33.1764       384800       99.5018
33.1851       384900       99.4974
33.1937       385000       99.493
33.2023       385100       99.4886
33.2109       385200       99.4843
33.2196       385300       99.4799
33.2282       385400       99.4755
33.2368       385500       99.4712
33.2454       385600       99.4668
33.254       385700       99.4624
33.2627       385800       99.4581
33.2713       385900       99.4537
33.2799       386000       99.4493
33.2885       386100       99.445
33.2972       386200       99.4406
33.3058       386300       99.4363
33.3144       386400       99.4319
33.323       386500       99.4275
33.3316       386600       99.4232
33.3403       386700       99.4188
33.3489       386800       99.4145
33.3575       386900       99.4101
33.3661       387000       99.4058
33.3747       387100       99.4014
33.3834       387200       99.3971
33.392       387300       99.3927
33.4006       387400       99.3884
33.4092       387500       99.384
33.4179       387600       99.3797
33.4265       387700       99.3754
33.4351       387800       99.371
33.4437       387900       99.3667
33.4523       388000       99.3623
33.461       388100       99.358
33.4696       388200       99.3537
33.4782       388300       99.3493
33.4868       388400       99.345
33.4955       388500       99.3407
33.5041       388600       99.3363
33.5127       388700       99.332
33.5213       388800       99.3277
33.5299       388900       99.3234
33.5386       389000       99.319
33.5472       389100       99.3147
33.5558       389200       99.3104
33.5644       389300       99.3061
33.573       389400       99.3017
33.5817       389500       99.2974
33.5903       389600       99.2931
33.5989       389700       99.2888
33.6075       389800       99.2845
33.6162       389900       99.2802
33.6248       390000       99.2758
33.6334       390100       99.2715
33.642       390200       99.2672
33.6506       390300       99.2629
33.6593       390400       99.2586
33.6679       390500       99.2543
33.6765       390600       99.25
33.6851       390700       99.2457
33.6938       390800       99.2414
33.7024       390900       99.2371
33.711       391000       99.2328
33.7196       391100       99.2285
33.7282       391200       99.2242
33.7369       391300       99.2199
33.7455       391400       99.2156
33.7541       391500       99.2113
33.7627       391600       99.207
33.7713       391700       99.2027
33.78       391800       99.1984
33.7886       391900       99.1941
33.7972       392000       99.1898
33.8058       392100       99.1855
33.8145       392200       99.1812
33.8231       392300       99.177
33.8317       392400       99.1727
33.8403       392500       99.1684
33.8489       392600       99.1641
33.8576       392700       99.1598
33.8662       392800       99.1555
33.8748       392900       99.1513
33.8834       393000       99.147
33.8921       393100       99.1427
33.9007       393200       99.1384
33.9093       393300       99.1342
33.9179       393400       99.1299
33.9265       393500       99.1256
33.9352       393600       99.1213
33.9438       393700       99.1171
33.9524       393800       99.1128
33.961       393900       99.1085
33.9696       394000       99.1043
33.9783       394100       99.1
33.9869       394200       99.0957
33.9955       394300       99.0915
34.0041       394400       99.0872
34.0128       394500       99.0829
34.0214       394600       99.0787
34.03       394700       99.0744
34.0386       394800       99.0702
34.0472       394900       99.0659
34.0559       395000       99.0617
34.0645       395100       99.0574
34.0731       395200       99.0532
34.0817       395300       99.0489
34.0904       395400       99.0447
34.099       395500       99.0404
34.1076       395600       99.0362
34.1162       395700       99.0319
34.1248       395800       99.0277
34.1335       395900       99.0234
34.1421       396000       99.0192
34.1507       396100       99.0149
34.1593       396200       99.0107
34.1679       396300       99.0065
34.1766       396400       99.0022
34.1852       396500       98.998
34.1938       396600       98.9938
34.2024       396700       98.9895
34.2111       396800       98.9853
34.2197       396900       98.9811
34.2283       397000       98.9768
34.2369       397100       98.9726
34.2455       397200       98.9684
34.2542       397300       98.9641
34.2628       397400       98.9599
34.2714       397500       98.9557
34.28       397600       98.9515
34.2887       397700       98.9472
34.2973       397800       98.943
34.3059       397900       98.9388
34.3145       398000       98.9346
34.3231       398100       98.9304
34.3318       398200       98.9261
34.3404       398300       98.9219
34.349       398400       98.9177
34.3576       398500       98.9135
34.3662       398600       98.9093
34.3749       398700       98.9051
34.3835       398800       98.9009
34.3921       398900       98.8966
34.4007       399000       98.8924
34.4094       399100       98.8882
34.418       399200       98.884
34.4266       399300       98.8798
34.4352       399400       98.8756
34.4438       399500       98.8714
34.4525       399600       98.8672
34.4611       399700       98.863
34.4697       399800       98.8588
34.4783       399900       98.8546
34.487       400000       98.8504
