; The collision integrals Q_{i,j}^{11} are exponential fit function obtained from 
; Transport properties of high-temperature Jupiter atmosphere components, D. Bruno, C. Catalfamo, M. Capitelli, G. Colonna, O. De Pascale et al., Phys. Plasmas 17, 112315 (2010), doi: 10.1063/1.3495980, Published by the American Institute of Physics
; 
; 
; To obtain these collision integrals, the original data (transport cross section Q^l_{i,j} or elastic collision differential cross section) are obtained from:
;
; 1) J. J. Hurly and J. B. Mehl, J. Res. Natl. Inst. Stand. Technol. 112, 75 2007.
;
; 1 atomic unit of square distance = 2.80e-17 cm^2
; 1eV = 11604K

2.80e-17


;        E             T             Q11
;       (eV)         (K)         (a.u.)

0.0862174       1000       34.5301
0.0948391       1100       33.7366
0.103461       1200       33.0178
0.112083       1300       32.3611
0.120704       1400       31.757
0.129326       1500       31.1978
0.137948       1600       30.6777
0.14657       1700       30.1915
0.155191       1800       29.7354
0.163813       1900       29.306
0.172435       2000       28.9004
0.181056       2100       28.5162
0.189678       2200       28.1514
0.1983       2300       27.8042
0.206922       2400       27.473
0.215543       2500       27.1565
0.224165       2600       26.8535
0.232787       2700       26.563
0.241409       2800       26.284
0.25003       2900       26.0156
0.258652       3000       25.7572
0.267274       3100       25.508
0.275896       3200       25.2675
0.284517       3300       25.0351
0.293139       3400       24.8103
0.301761       3500       24.5926
0.310383       3600       24.3817
0.319004       3700       24.1771
0.327626       3800       23.9785
0.336248       3900       23.7856
0.34487       4000       23.5981
0.353491       4100       23.4157
0.362113       4200       23.2382
0.370735       4300       23.0652
0.379356       4400       22.8967
0.387978       4500       22.7324
0.3966       4600       22.5721
0.405222       4700       22.4156
0.413843       4800       22.2627
0.422465       4900       22.1134
0.431087       5000       21.9674
0.439709       5100       21.8246
0.44833       5200       21.685
0.456952       5300       21.5483
0.465574       5400       21.4144
0.474196       5500       21.2833
0.482817       5600       21.1549
0.491439       5700       21.029
0.500061       5800       20.9055
0.508683       5900       20.7844
0.517304       6000       20.6656
0.525926       6100       20.549
0.534548       6200       20.4346
0.543169       6300       20.3222
0.551791       6400       20.2118
0.560413       6500       20.1033
0.569035       6600       19.9967
0.577656       6700       19.8919
0.586278       6800       19.7888
0.5949       6900       19.6875
0.603522       7000       19.5878
0.612143       7100       19.4897
0.620765       7200       19.3932
0.629387       7300       19.2981
0.638009       7400       19.2046
0.64663       7500       19.1125
0.655252       7600       19.0217
0.663874       7700       18.9323
0.672496       7800       18.8442
0.681117       7900       18.7574
0.689739       8000       18.6719
0.698361       8100       18.5875
0.706983       8200       18.5044
0.715604       8300       18.4224
0.724226       8400       18.3415
0.732848       8500       18.2617
0.741469       8600       18.183
0.750091       8700       18.1053
0.758713       8800       18.0287
0.767335       8900       17.953
0.775956       9000       17.8783
0.784578       9100       17.8046
0.7932       9200       17.7317
0.801822       9300       17.6598
0.810443       9400       17.5888
0.819065       9500       17.5186
0.827687       9600       17.4493
0.836309       9700       17.3808
0.84493       9800       17.3132
0.853552       9900       17.2463
0.862174       10000       17.1802
0.870796       10100       17.1148
0.879417       10200       17.0502
0.888039       10300       16.9864
0.896661       10400       16.9232
0.905282       10500       16.8608
0.913904       10600       16.799
0.922526       10700       16.7379
0.931148       10800       16.6775
0.939769       10900       16.6177
0.948391       11000       16.5586
0.957013       11100       16.5
0.965635       11200       16.4421
0.974256       11300       16.3848
0.982878       11400       16.3281
0.9915       11500       16.2719
1.00012       11600       16.2164
1.00874       11700       16.1613
1.01737       11800       16.1069
1.02599       11900       16.0529
1.03461       12000       15.9995
1.04323       12100       15.9466
1.05185       12200       15.8943
1.06047       12300       15.8424
1.0691       12400       15.791
1.07772       12500       15.7401
1.08634       12600       15.6897
1.09496       12700       15.6397
1.10358       12800       15.5902
1.1122       12900       15.5412
1.12083       13000       15.4926
1.12945       13100       15.4444
1.13807       13200       15.3967
1.14669       13300       15.3494
1.15531       13400       15.3025
1.16393       13500       15.256
1.17256       13600       15.21
1.18118       13700       15.1643
1.1898       13800       15.119
1.19842       13900       15.0741
1.20704       14000       15.0296
1.21567       14100       14.9855
1.22429       14200       14.9417
1.23291       14300       14.8983
1.24153       14400       14.8552
1.25015       14500       14.8125
1.25877       14600       14.7702
1.2674       14700       14.7282
1.27602       14800       14.6865
1.28464       14900       14.6452
1.29326       15000       14.6042
1.30188       15100       14.5635
1.3105       15200       14.5232
1.31913       15300       14.4831
1.32775       15400       14.4434
1.33637       15500       14.404
1.34499       15600       14.3649
1.35361       15700       14.326
1.36223       15800       14.2875
1.37086       15900       14.2493
1.37948       16000       14.2113
1.3881       16100       14.1736
1.39672       16200       14.1362
1.40534       16300       14.0991
1.41397       16400       14.0623
1.42259       16500       14.0257
1.43121       16600       13.9894
1.43983       16700       13.9533
1.44845       16800       13.9175
1.45707       16900       13.882
1.4657       17000       13.8467
1.47432       17100       13.8117
1.48294       17200       13.7769
1.49156       17300       13.7423
1.50018       17400       13.708
1.5088       17500       13.6739
1.51743       17600       13.6401
1.52605       17700       13.6065
1.53467       17800       13.5731
1.54329       17900       13.54
1.55191       18000       13.507
1.56053       18100       13.4743
1.56916       18200       13.4418
1.57778       18300       13.4095
1.5864       18400       13.3775
1.59502       18500       13.3456
1.60364       18600       13.3139
1.61227       18700       13.2825
1.62089       18800       13.2513
1.62951       18900       13.2202
1.63813       19000       13.1894
1.64675       19100       13.1587
1.65537       19200       13.1283
1.664       19300       13.098
1.67262       19400       13.0679
1.68124       19500       13.038
1.68986       19600       13.0083
1.69848       19700       12.9788
1.7071       19800       12.9495
1.71573       19900       12.9203
1.72435       20000       12.8913
1.73297       20100       12.8625
1.74159       20200       12.8339
1.75021       20300       12.8055
1.75883       20400       12.7772
1.76746       20500       12.7491
1.77608       20600       12.7211
1.7847       20700       12.6933
1.79332       20800       12.6657
1.80194       20900       12.6382
1.81056       21000       12.6109
1.81919       21100       12.5838
1.82781       21200       12.5568
1.83643       21300       12.53
1.84505       21400       12.5033
1.85367       21500       12.4768
1.8623       21600       12.4504
1.87092       21700       12.4242
1.87954       21800       12.3981
1.88816       21900       12.3722
1.89678       22000       12.3464
1.9054       22100       12.3207
1.91403       22200       12.2952
1.92265       22300       12.2699
1.93127       22400       12.2446
1.93989       22500       12.2196
1.94851       22600       12.1946
1.95713       22700       12.1698
1.96576       22800       12.1451
1.97438       22900       12.1206
1.983       23000       12.0962
1.99162       23100       12.0719
2.00024       23200       12.0477
2.00886       23300       12.0237
2.01749       23400       11.9998
2.02611       23500       11.976
2.03473       23600       11.9524
2.04335       23700       11.9288
2.05197       23800       11.9054
2.0606       23900       11.8822
2.06922       24000       11.859
2.07784       24100       11.8359
2.08646       24200       11.813
2.09508       24300       11.7902
2.1037       24400       11.7675
2.11233       24500       11.7449
2.12095       24600       11.7225
2.12957       24700       11.7001
2.13819       24800       11.6779
2.14681       24900       11.6557
2.15543       25000       11.6337
2.16406       25100       11.6118
2.17268       25200       11.59
2.1813       25300       11.5683
2.18992       25400       11.5467
2.19854       25500       11.5252
2.20716       25600       11.5039
2.21579       25700       11.4826
2.22441       25800       11.4614
2.23303       25900       11.4403
2.24165       26000       11.4194
2.25027       26100       11.3985
2.2589       26200       11.3777
2.26752       26300       11.3571
2.27614       26400       11.3365
2.28476       26500       11.316
2.29338       26600       11.2956
2.302       26700       11.2753
2.31063       26800       11.2551
2.31925       26900       11.235
2.32787       27000       11.215
2.33649       27100       11.1951
2.34511       27200       11.1753
2.35373       27300       11.1556
2.36236       27400       11.1359
2.37098       27500       11.1164
2.3796       27600       11.0969
2.38822       27700       11.0775
2.39684       27800       11.0582
2.40546       27900       11.039
2.41409       28000       11.0199
2.42271       28100       11.0009
2.43133       28200       10.982
2.43995       28300       10.9631
2.44857       28400       10.9443
2.4572       28500       10.9256
2.46582       28600       10.907
2.47444       28700       10.8885
2.48306       28800       10.87
2.49168       28900       10.8517
2.5003       29000       10.8334
2.50893       29100       10.8152
2.51755       29200       10.797
2.52617       29300       10.779
2.53479       29400       10.761
2.54341       29500       10.7431
2.55203       29600       10.7253
2.56066       29700       10.7075
2.56928       29800       10.6898
2.5779       29900       10.6722
2.58652       30000       10.6547
2.59514       30100       10.6373
2.60376       30200       10.6199
2.61239       30300       10.6026
2.62101       30400       10.5853
2.62963       30500       10.5682
2.63825       30600       10.5511
2.64687       30700       10.5341
2.6555       30800       10.5171
2.66412       30900       10.5002
2.67274       31000       10.4834
2.68136       31100       10.4667
2.68998       31200       10.45
2.6986       31300       10.4334
2.70723       31400       10.4168
2.71585       31500       10.4004
2.72447       31600       10.384
2.73309       31700       10.3676
2.74171       31800       10.3513
2.75033       31900       10.3351
2.75896       32000       10.319
2.76758       32100       10.3029
2.7762       32200       10.2869
2.78482       32300       10.2709
2.79344       32400       10.255
2.80206       32500       10.2392
2.81069       32600       10.2234
2.81931       32700       10.2077
2.82793       32800       10.192
2.83655       32900       10.1764
2.84517       33000       10.1609
2.8538       33100       10.1454
2.86242       33200       10.13
2.87104       33300       10.1147
2.87966       33400       10.0994
2.88828       33500       10.0842
2.8969       33600       10.069
2.90553       33700       10.0539
2.91415       33800       10.0388
2.92277       33900       10.0238
2.93139       34000       10.0088
2.94001       34100       9.99395
2.94863       34200       9.97911
2.95726       34300       9.96433
2.96588       34400       9.9496
2.9745       34500       9.93493
2.98312       34600       9.92031
2.99174       34700       9.90575
3.00036       34800       9.89124
3.00899       34900       9.87678
3.01761       35000       9.86237
3.02623       35100       9.84802
3.03485       35200       9.83372
3.04347       35300       9.81947
3.0521       35400       9.80528
3.06072       35500       9.79113
3.06934       35600       9.77704
3.07796       35700       9.76299
3.08658       35800       9.749
3.0952       35900       9.73506
3.10383       36000       9.72116
3.11245       36100       9.70732
3.12107       36200       9.69353
3.12969       36300       9.67978
3.13831       36400       9.66608
3.14693       36500       9.65243
3.15556       36600       9.63883
3.16418       36700       9.62528
3.1728       36800       9.61177
3.18142       36900       9.59831
3.19004       37000       9.5849
3.19866       37100       9.57153
3.20729       37200       9.55822
3.21591       37300       9.54494
3.22453       37400       9.53171
3.23315       37500       9.51853
3.24177       37600       9.5054
3.2504       37700       9.4923
3.25902       37800       9.47926
3.26764       37900       9.46625
3.27626       38000       9.4533
3.28488       38100       9.44038
3.2935       38200       9.42751
3.30213       38300       9.41468
3.31075       38400       9.4019
3.31937       38500       9.38916
3.32799       38600       9.37646
3.33661       38700       9.3638
3.34523       38800       9.35119
3.35386       38900       9.33862
3.36248       39000       9.32609
3.3711       39100       9.3136
3.37972       39200       9.30115
3.38834       39300       9.28875
3.39696       39400       9.27638
3.40559       39500       9.26406
3.41421       39600       9.25177
3.42283       39700       9.23953
3.43145       39800       9.22732
3.44007       39900       9.21516
3.4487       40000       9.20303
3.45732       40100       9.19095
3.46594       40200       9.1789
3.47456       40300       9.16689
3.48318       40400       9.15492
3.4918       40500       9.14299
3.50043       40600       9.1311
3.50905       40700       9.11924
3.51767       40800       9.10743
3.52629       40900       9.09565
3.53491       41000       9.08391
3.54353       41100       9.0722
3.55216       41200       9.06053
3.56078       41300       9.0489
3.5694       41400       9.03731
3.57802       41500       9.02575
3.58664       41600       9.01423
3.59526       41700       9.00274
3.60389       41800       8.99129
3.61251       41900       8.97988
3.62113       42000       8.9685
3.62975       42100       8.95716
3.63837       42200       8.94585
3.647       42300       8.93458
3.65562       42400       8.92334
3.66424       42500       8.91213
3.67286       42600       8.90096
3.68148       42700       8.88983
3.6901       42800       8.87873
3.69873       42900       8.86766
3.70735       43000       8.85663
3.71597       43100       8.84563
3.72459       43200       8.83466
3.73321       43300       8.82373
3.74183       43400       8.81282
3.75046       43500       8.80196
3.75908       43600       8.79112
3.7677       43700       8.78032
3.77632       43800       8.76955
3.78494       43900       8.75881
3.79356       44000       8.7481
3.80219       44100       8.73743
3.81081       44200       8.72679
3.81943       44300       8.71618
3.82805       44400       8.7056
3.83667       44500       8.69505
3.8453       44600       8.68453
3.85392       44700       8.67404
3.86254       44800       8.66359
3.87116       44900       8.65316
3.87978       45000       8.64277
3.8884       45100       8.6324
3.89703       45200       8.62207
3.90565       45300       8.61177
3.91427       45400       8.60149
3.92289       45500       8.59125
3.93151       45600       8.58103
3.94013       45700       8.57085
3.94876       45800       8.56069
3.95738       45900       8.55056
3.966       46000       8.54047
3.97462       46100       8.5304
3.98324       46200       8.52036
3.99186       46300       8.51034
4.00049       46400       8.50036
4.00911       46500       8.49041
4.01773       46600       8.48048
4.02635       46700       8.47058
4.03497       46800       8.46071
4.0436       46900       8.45087
4.05222       47000       8.44105
4.06084       47100       8.43127
4.06946       47200       8.42151
4.07808       47300       8.41177
4.0867       47400       8.40207
4.09533       47500       8.39239
4.10395       47600       8.38274
4.11257       47700       8.37311
4.12119       47800       8.36351
4.12981       47900       8.35394
4.13843       48000       8.3444
4.14706       48100       8.33488
4.15568       48200       8.32538
4.1643       48300       8.31592
4.17292       48400       8.30648
4.18154       48500       8.29706
4.19016       48600       8.28767
4.19879       48700       8.27831
4.20741       48800       8.26897
4.21603       48900       8.25966
4.22465       49000       8.25037
4.23327       49100       8.24111
4.2419       49200       8.23187
4.25052       49300       8.22266
4.25914       49400       8.21347
4.26776       49500       8.20431
4.27638       49600       8.19517
4.285       49700       8.18605
4.29363       49800       8.17696
4.30225       49900       8.1679
4.31087       50000       8.15886
4.31949       50100       8.14984
4.32811       50200       8.14085
4.33673       50300       8.13188
4.34536       50400       8.12293
4.35398       50500       8.11401
4.3626       50600       8.10511
4.37122       50700       8.09624
4.37984       50800       8.08738
4.38846       50900       8.07855
4.39709       51000       8.06975
4.40571       51100       8.06097
4.41433       51200       8.05221
4.42295       51300       8.04347
4.43157       51400       8.03476
4.4402       51500       8.02606
4.44882       51600       8.01739
4.45744       51700       8.00875
4.46606       51800       8.00012
4.47468       51900       7.99152
4.4833       52000       7.98294
4.49193       52100       7.97438
4.50055       52200       7.96585
4.50917       52300       7.95733
4.51779       52400       7.94884
4.52641       52500       7.94037
4.53503       52600       7.93192
4.54366       52700       7.92349
4.55228       52800       7.91509
4.5609       52900       7.9067
4.56952       53000       7.89834
4.57814       53100       7.88999
4.58676       53200       7.88167
4.59539       53300       7.87337
4.60401       53400       7.86509
4.61263       53500       7.85683
4.62125       53600       7.84859
4.62987       53700       7.84038
4.6385       53800       7.83218
4.64712       53900       7.824
4.65574       54000       7.81585
4.66436       54100       7.80771
4.67298       54200       7.79959
4.6816       54300       7.7915
4.69023       54400       7.78342
4.69885       54500       7.77537
4.70747       54600       7.76733
4.71609       54700       7.75931
4.72471       54800       7.75132
4.73333       54900       7.74334
4.74196       55000       7.73538
4.75058       55100       7.72744
4.7592       55200       7.71952
4.76782       55300       7.71162
4.77644       55400       7.70374
4.78506       55500       7.69588
4.79369       55600       7.68804
4.80231       55700       7.68022
4.81093       55800       7.67241
4.81955       55900       7.66463
4.82817       56000       7.65686
4.8368       56100       7.64911
4.84542       56200       7.64139
4.85404       56300       7.63367
4.86266       56400       7.62598
4.87128       56500       7.61831
4.8799       56600       7.61065
4.88853       56700       7.60302
4.89715       56800       7.5954
4.90577       56900       7.5878
4.91439       57000       7.58021
4.92301       57100       7.57265
4.93163       57200       7.5651
4.94026       57300       7.55757
4.94888       57400       7.55006
4.9575       57500       7.54257
4.96612       57600       7.53509
4.97474       57700       7.52763
4.98336       57800       7.52019
4.99199       57900       7.51277
5.00061       58000       7.50536
5.00923       58100       7.49797
5.01785       58200       7.4906
5.02647       58300       7.48325
5.03509       58400       7.47591
5.04372       58500       7.46859
5.05234       58600       7.46128
5.06096       58700       7.454
5.06958       58800       7.44673
5.0782       58900       7.43947
5.08683       59000       7.43224
5.09545       59100       7.42502
5.10407       59200       7.41782
5.11269       59300       7.41063
5.12131       59400       7.40346
5.12993       59500       7.39631
5.13856       59600       7.38917
5.14718       59700       7.38205
5.1558       59800       7.37494
5.16442       59900       7.36785
5.17304       60000       7.36078
5.18166       60100       7.35372
5.19029       60200       7.34668
5.19891       60300       7.33966
5.20753       60400       7.33265
5.21615       60500       7.32566
5.22477       60600       7.31868
5.23339       60700       7.31172
5.24202       60800       7.30477
5.25064       60900       7.29784
5.25926       61000       7.29093
5.26788       61100       7.28403
5.2765       61200       7.27714
5.28513       61300       7.27027
5.29375       61400       7.26342
5.30237       61500       7.25658
5.31099       61600       7.24976
5.31961       61700       7.24295
5.32823       61800       7.23616
5.33686       61900       7.22938
5.34548       62000       7.22262
5.3541       62100       7.21587
5.36272       62200       7.20913
5.37134       62300       7.20242
5.37996       62400       7.19571
5.38859       62500       7.18902
5.39721       62600       7.18235
5.40583       62700       7.17569
5.41445       62800       7.16904
5.42307       62900       7.16241
5.43169       63000       7.1558
5.44032       63100       7.14919
5.44894       63200       7.14261
5.45756       63300       7.13603
5.46618       63400       7.12947
5.4748       63500       7.12293
5.48343       63600       7.1164
5.49205       63700       7.10988
5.50067       63800       7.10338
5.50929       63900       7.09689
5.51791       64000       7.09041
5.52653       64100       7.08395
5.53516       64200       7.0775
5.54378       64300       7.07107
5.5524       64400       7.06465
5.56102       64500       7.05825
5.56964       64600       7.05185
5.57826       64700       7.04547
5.58689       64800       7.03911
5.59551       64900       7.03276
5.60413       65000       7.02642
5.61275       65100       7.02009
5.62137       65200       7.01378
5.62999       65300       7.00748
5.63862       65400       7.0012
5.64724       65500       6.99493
5.65586       65600       6.98867
5.66448       65700       6.98242
5.6731       65800       6.97619
5.68173       65900       6.96997
5.69035       66000       6.96376
5.69897       66100       6.95757
5.70759       66200       6.95139
5.71621       66300       6.94522
5.72483       66400       6.93907
5.73346       66500       6.93293
5.74208       66600       6.9268
5.7507       66700       6.92068
5.75932       66800       6.91458
5.76794       66900       6.90848
5.77656       67000       6.90241
5.78519       67100       6.89634
5.79381       67200       6.89029
5.80243       67300       6.88424
5.81105       67400       6.87822
5.81967       67500       6.8722
5.82829       67600       6.86619
5.83692       67700       6.8602
5.84554       67800       6.85422
5.85416       67900       6.84826
5.86278       68000       6.8423
5.8714       68100       6.83636
5.88003       68200       6.83043
5.88865       68300       6.82451
5.89727       68400       6.8186
5.90589       68500       6.8127
5.91451       68600       6.80682
5.92313       68700       6.80095
5.93176       68800       6.79509
5.94038       68900       6.78924
5.949       69000       6.78341
5.95762       69100       6.77758
5.96624       69200       6.77177
5.97486       69300       6.76597
5.98349       69400       6.76018
5.99211       69500       6.7544
6.00073       69600       6.74863
6.00935       69700       6.74288
6.01797       69800       6.73714
6.02659       69900       6.7314
6.03522       70000       6.72568
6.04384       70100       6.71997
6.05246       70200       6.71428
6.06108       70300       6.70859
6.0697       70400       6.70291
6.07833       70500       6.69725
6.08695       70600       6.6916
6.09557       70700       6.68596
6.10419       70800       6.68033
6.11281       70900       6.67471
6.12143       71000       6.6691
6.13006       71100       6.6635
6.13868       71200       6.65791
6.1473       71300       6.65234
6.15592       71400       6.64677
6.16454       71500       6.64122
6.17316       71600       6.63567
6.18179       71700       6.63014
6.19041       71800       6.62462
6.19903       71900       6.61911
6.20765       72000       6.61361
6.21627       72100       6.60812
6.22489       72200       6.60264
6.23352       72300       6.59717
6.24214       72400       6.59171
6.25076       72500       6.58627
6.25938       72600       6.58083
6.268       72700       6.5754
6.27663       72800       6.56999
6.28525       72900       6.56458
6.29387       73000       6.55919
6.30249       73100       6.5538
6.31111       73200       6.54843
6.31973       73300       6.54306
6.32836       73400       6.53771
6.33698       73500       6.53237
6.3456       73600       6.52703
6.35422       73700       6.52171
6.36284       73800       6.5164
6.37146       73900       6.51109
6.38009       74000       6.5058
6.38871       74100       6.50052
6.39733       74200       6.49524
6.40595       74300       6.48998
6.41457       74400       6.48473
6.42319       74500       6.47948
6.43182       74600       6.47425
6.44044       74700       6.46902
6.44906       74800       6.46381
6.45768       74900       6.45861
6.4663       75000       6.45341
6.47493       75100       6.44823
6.48355       75200       6.44305
6.49217       75300       6.43789
6.50079       75400       6.43273
6.50941       75500       6.42758
6.51803       75600       6.42245
6.52666       75700       6.41732
6.53528       75800       6.4122
6.5439       75900       6.40709
6.55252       76000       6.402
6.56114       76100       6.39691
6.56976       76200       6.39183
6.57839       76300       6.38676
6.58701       76400       6.3817
6.59563       76500       6.37664
6.60425       76600       6.3716
6.61287       76700       6.36657
6.62149       76800       6.36154
6.63012       76900       6.35653
6.63874       77000       6.35152
6.64736       77100       6.34653
6.65598       77200       6.34154
6.6646       77300       6.33656
6.67323       77400       6.33159
6.68185       77500       6.32663
6.69047       77600       6.32168
6.69909       77700       6.31674
6.70771       77800       6.31181
6.71633       77900       6.30688
6.72496       78000       6.30197
6.73358       78100       6.29706
6.7422       78200       6.29216
6.75082       78300       6.28728
6.75944       78400       6.2824
6.76806       78500       6.27752
6.77669       78600       6.27266
6.78531       78700       6.26781
6.79393       78800       6.26296
6.80255       78900       6.25813
6.81117       79000       6.2533
6.81979       79100       6.24848
6.82842       79200       6.24367
6.83704       79300       6.23887
6.84566       79400       6.23408
6.85428       79500       6.22929
6.8629       79600       6.22452
6.87153       79700       6.21975
6.88015       79800       6.21499
6.88877       79900       6.21024
6.89739       80000       6.2055
6.90601       80100       6.20076
6.91463       80200       6.19604
6.92326       80300       6.19132
6.93188       80400       6.18661
6.9405       80500       6.18191
6.94912       80600       6.17722
6.95774       80700       6.17254
6.96636       80800       6.16786
6.97499       80900       6.16319
6.98361       81000       6.15853
6.99223       81100       6.15388
7.00085       81200       6.14924
7.00947       81300       6.14461
7.01809       81400       6.13998
7.02672       81500       6.13536
7.03534       81600       6.13075
7.04396       81700       6.12615
7.05258       81800       6.12155
7.0612       81900       6.11697
7.06983       82000       6.11239
7.07845       82100       6.10782
7.08707       82200       6.10326
7.09569       82300       6.0987
7.10431       82400       6.09415
7.11293       82500       6.08961
7.12156       82600       6.08508
7.13018       82700       6.08056
7.1388       82800       6.07604
7.14742       82900       6.07154
7.15604       83000       6.06704
7.16466       83100       6.06254
7.17329       83200       6.05806
7.18191       83300       6.05358
7.19053       83400       6.04911
7.19915       83500       6.04465
7.20777       83600       6.0402
7.21639       83700       6.03575
7.22502       83800       6.03131
7.23364       83900       6.02688
7.24226       84000       6.02246
7.25088       84100       6.01804
7.2595       84200       6.01363
7.26813       84300       6.00923
7.27675       84400       6.00484
7.28537       84500       6.00045
7.29399       84600       5.99607
7.30261       84700       5.9917
7.31123       84800       5.98734
7.31986       84900       5.98298
7.32848       85000       5.97863
7.3371       85100       5.97429
7.34572       85200       5.96995
7.35434       85300       5.96562
7.36296       85400       5.9613
7.37159       85500       5.95699
7.38021       85600       5.95269
7.38883       85700       5.94839
7.39745       85800       5.9441
7.40607       85900       5.93981
7.41469       86000       5.93553
7.42332       86100       5.93126
7.43194       86200       5.927
7.44056       86300       5.92275
7.44918       86400       5.9185
7.4578       86500       5.91425
7.46643       86600       5.91002
7.47505       86700       5.90579
7.48367       86800       5.90157
7.49229       86900       5.89736
7.50091       87000       5.89315
7.50953       87100       5.88895
7.51816       87200       5.88476
7.52678       87300       5.88057
7.5354       87400       5.87639
7.54402       87500       5.87222
7.55264       87600       5.86806
7.56126       87700       5.8639
7.56989       87800       5.85975
7.57851       87900       5.8556
7.58713       88000       5.85146
7.59575       88100       5.84733
7.60437       88200       5.84321
7.61299       88300       5.83909
7.62162       88400       5.83498
7.63024       88500       5.83087
7.63886       88600       5.82678
7.64748       88700       5.82269
7.6561       88800       5.8186
7.66473       88900       5.81452
7.67335       89000       5.81045
7.68197       89100       5.80639
7.69059       89200       5.80233
7.69921       89300       5.79828
7.70783       89400       5.79423
7.71646       89500       5.79019
7.72508       89600       5.78616
7.7337       89700       5.78214
7.74232       89800       5.77812
7.75094       89900       5.77411
7.75956       90000       5.7701
7.76819       90100       5.7661
7.77681       90200       5.76211
7.78543       90300       5.75812
7.79405       90400       5.75414
7.80267       90500       5.75017
7.81129       90600       5.7462
7.81992       90700       5.74224
7.82854       90800       5.73828
7.83716       90900       5.73433
7.84578       91000       5.73039
7.8544       91100       5.72645
7.86303       91200       5.72252
7.87165       91300       5.7186
7.88027       91400       5.71468
7.88889       91500       5.71077
7.89751       91600       5.70687
7.90613       91700       5.70297
7.91476       91800       5.69907
7.92338       91900       5.69519
7.932       92000       5.69131
7.94062       92100       5.68743
7.94924       92200       5.68356
7.95786       92300       5.6797
7.96649       92400       5.67585
7.97511       92500       5.672
7.98373       92600       5.66815
7.99235       92700       5.66431
8.00097       92800       5.66048
8.00959       92900       5.65666
8.01822       93000       5.65284
8.02684       93100       5.64902
8.03546       93200       5.64521
8.04408       93300       5.64141
8.0527       93400       5.63762
8.06133       93500       5.63382
8.06995       93600       5.63004
8.07857       93700       5.62626
8.08719       93800       5.62249
8.09581       93900       5.61872
8.10443       94000       5.61496
8.11306       94100       5.61121
8.12168       94200       5.60746
8.1303       94300       5.60371
8.13892       94400       5.59997
8.14754       94500       5.59624
8.15616       94600       5.59252
8.16479       94700       5.5888
8.17341       94800       5.58508
8.18203       94900       5.58137
8.19065       95000       5.57767
8.19927       95100       5.57397
8.20789       95200       5.57028
8.21652       95300       5.56659
8.22514       95400       5.56291
8.23376       95500       5.55924
8.24238       95600       5.55557
8.251       95700       5.5519
8.25963       95800       5.54824
8.26825       95900       5.54459
8.27687       96000       5.54094
8.28549       96100       5.5373
8.29411       96200       5.53367
8.30273       96300       5.53004
8.31136       96400       5.52641
8.31998       96500       5.52279
8.3286       96600       5.51918
8.33722       96700       5.51557
8.34584       96800       5.51196
8.35446       96900       5.50837
8.36309       97000       5.50477
8.37171       97100       5.50119
8.38033       97200       5.49761
8.38895       97300       5.49403
8.39757       97400       5.49046
8.40619       97500       5.48689
8.41482       97600       5.48333
8.42344       97700       5.47978
8.43206       97800       5.47623
8.44068       97900       5.47268
8.4493       98000       5.46915
8.45792       98100       5.46561
8.46655       98200       5.46208
8.47517       98300       5.45856
8.48379       98400       5.45504
8.49241       98500       5.45153
8.50103       98600       5.44802
8.50966       98700       5.44452
8.51828       98800       5.44102
8.5269       98900       5.43753
8.53552       99000       5.43405
8.54414       99100       5.43057
8.55276       99200       5.42709
8.56139       99300       5.42362
8.57001       99400       5.42015
8.57863       99500       5.41669
8.58725       99600       5.41324
8.59587       99700       5.40979
8.60449       99800       5.40634
8.61312       99900       5.4029
8.62174       100000       5.39946
8.63036       100100       5.39603
8.63898       100200       5.39261
8.6476       100300       5.38919
8.65622       100400       5.38577
8.66485       100500       5.38236
8.67347       100600       5.37896
8.68209       100700       5.37556
8.69071       100800       5.37216
8.69933       100900       5.36877
8.70796       101000       5.36539
8.71658       101100       5.36201
8.7252       101200       5.35863
8.73382       101300       5.35526
8.74244       101400       5.3519
8.75106       101500       5.34854
8.75969       101600       5.34518
8.76831       101700       5.34183
8.77693       101800       5.33848
8.78555       101900       5.33514
8.79417       102000       5.3318
8.80279       102100       5.32847
8.81142       102200       5.32515
8.82004       102300       5.32182
8.82866       102400       5.31851
8.83728       102500       5.3152
8.8459       102600       5.31189
8.85452       102700       5.30858
8.86315       102800       5.30529
8.87177       102900       5.30199
8.88039       103000       5.2987
8.88901       103100       5.29542
8.89763       103200       5.29214
8.90626       103300       5.28887
8.91488       103400       5.2856
8.9235       103500       5.28233
8.93212       103600       5.27907
8.94074       103700       5.27582
8.94936       103800       5.27256
8.95799       103900       5.26932
8.96661       104000       5.26608
8.97523       104100       5.26284
8.98385       104200       5.25961
8.99247       104300       5.25638
9.00109       104400       5.25316
9.00972       104500       5.24994
9.01834       104600       5.24672
9.02696       104700       5.24351
9.03558       104800       5.24031
9.0442       104900       5.23711
9.05282       105000       5.23391
9.06145       105100       5.23072
9.07007       105200       5.22753
9.07869       105300       5.22435
9.08731       105400       5.22117
9.09593       105500       5.218
9.10456       105600       5.21483
9.11318       105700       5.21166
9.1218       105800       5.2085
9.13042       105900       5.20535
9.13904       106000       5.2022
9.14766       106100       5.19905
9.15629       106200       5.19591
9.16491       106300       5.19277
9.17353       106400       5.18963
9.18215       106500       5.1865
9.19077       106600       5.18338
9.19939       106700       5.18026
9.20802       106800       5.17714
9.21664       106900       5.17403
9.22526       107000       5.17092
9.23388       107100       5.16782
9.2425       107200       5.16472
9.25112       107300       5.16163
9.25975       107400       5.15854
9.26837       107500       5.15545
9.27699       107600       5.15237
9.28561       107700       5.14929
9.29423       107800       5.14622
9.30286       107900       5.14315
9.31148       108000       5.14008
9.3201       108100       5.13702
9.32872       108200       5.13397
9.33734       108300       5.13091
9.34596       108400       5.12787
9.35459       108500       5.12482
9.36321       108600       5.12178
9.37183       108700       5.11875
9.38045       108800       5.11572
9.38907       108900       5.11269
9.39769       109000       5.10967
9.40632       109100       5.10665
9.41494       109200       5.10363
9.42356       109300       5.10062
9.43218       109400       5.09762
9.4408       109500       5.09461
9.44942       109600       5.09162
9.45805       109700       5.08862
9.46667       109800       5.08563
9.47529       109900       5.08265
9.48391       110000       5.07966
9.49253       110100       5.07669
9.50116       110200       5.07371
9.50978       110300       5.07074
9.5184       110400       5.06778
9.52702       110500       5.06481
9.53564       110600       5.06186
9.54426       110700       5.0589
9.55289       110800       5.05595
9.56151       110900       5.05301
9.57013       111000       5.05007
9.57875       111100       5.04713
9.58737       111200       5.0442
9.59599       111300       5.04127
9.60462       111400       5.03834
9.61324       111500       5.03542
9.62186       111600       5.0325
9.63048       111700       5.02959
9.6391       111800       5.02668
9.64772       111900       5.02377
9.65635       112000       5.02087
9.66497       112100       5.01797
9.67359       112200       5.01507
9.68221       112300       5.01218
9.69083       112400       5.0093
9.69946       112500       5.00641
9.70808       112600       5.00354
9.7167       112700       5.00066
9.72532       112800       4.99779
9.73394       112900       4.99492
9.74256       113000       4.99206
9.75119       113100       4.9892
9.75981       113200       4.98634
9.76843       113300       4.98349
9.77705       113400       4.98064
9.78567       113500       4.9778
9.79429       113600       4.97496
9.80292       113700       4.97212
9.81154       113800       4.96928
9.82016       113900       4.96646
9.82878       114000       4.96363
9.8374       114100       4.96081
9.84602       114200       4.95799
9.85465       114300       4.95517
9.86327       114400       4.95236
9.87189       114500       4.94956
9.88051       114600       4.94675
9.88913       114700       4.94395
9.89776       114800       4.94116
9.90638       114900       4.93836
9.915       115000       4.93557
9.92362       115100       4.93279
9.93224       115200       4.93001
9.94086       115300       4.92723
9.94949       115400       4.92446
9.95811       115500       4.92168
9.96673       115600       4.91892
9.97535       115700       4.91615
9.98397       115800       4.91339
9.99259       115900       4.91064
10.0012       116000       4.90789
10.0098       116100       4.90514
10.0185       116200       4.90239
10.0271       116300       4.89965
10.0357       116400       4.89691
10.0443       116500       4.89418
10.0529       116600       4.89145
10.0616       116700       4.88872
10.0702       116800       4.88599
10.0788       116900       4.88327
10.0874       117000       4.88056
10.0961       117100       4.87784
10.1047       117200       4.87513
10.1133       117300       4.87243
10.1219       117400       4.86972
10.1305       117500       4.86702
10.1392       117600       4.86433
10.1478       117700       4.86163
10.1564       117800       4.85895
10.165       117900       4.85626
10.1737       118000       4.85358
10.1823       118100       4.8509
10.1909       118200       4.84822
10.1995       118300       4.84555
10.2081       118400       4.84288
10.2168       118500       4.84022
10.2254       118600       4.83756
10.234       118700       4.8349
10.2426       118800       4.83224
10.2512       118900       4.82959
10.2599       119000       4.82695
10.2685       119100       4.8243
10.2771       119200       4.82166
10.2857       119300       4.81902
10.2944       119400       4.81639
10.303       119500       4.81376
10.3116       119600       4.81113
10.3202       119700       4.8085
10.3288       119800       4.80588
10.3375       119900       4.80327
10.3461       120000       4.80065
10.3547       120100       4.79804
10.3633       120200       4.79543
10.372       120300       4.79283
10.3806       120400       4.79023
10.3892       120500       4.78763
10.3978       120600       4.78503
10.4064       120700       4.78244
10.4151       120800       4.77985
10.4237       120900       4.77727
10.4323       121000       4.77469
10.4409       121100       4.77211
10.4495       121200       4.76954
10.4582       121300       4.76696
10.4668       121400       4.76439
10.4754       121500       4.76183
10.484       121600       4.75927
10.4927       121700       4.75671
10.5013       121800       4.75415
10.5099       121900       4.7516
10.5185       122000       4.74905
10.5271       122100       4.74651
10.5358       122200       4.74396
10.5444       122300       4.74142
10.553       122400       4.73889
10.5616       122500       4.73635
10.5703       122600       4.73382
10.5789       122700       4.7313
10.5875       122800       4.72877
10.5961       122900       4.72625
10.6047       123000       4.72373
10.6134       123100       4.72122
10.622       123200       4.71871
10.6306       123300       4.7162
10.6392       123400       4.71369
10.6478       123500       4.71119
10.6565       123600       4.70869
10.6651       123700       4.7062
10.6737       123800       4.70371
10.6823       123900       4.70122
10.691       124000       4.69873
10.6996       124100       4.69625
10.7082       124200       4.69377
10.7168       124300       4.69129
10.7254       124400       4.68881
10.7341       124500       4.68634
10.7427       124600       4.68387
10.7513       124700       4.68141
10.7599       124800       4.67895
10.7686       124900       4.67649
10.7772       125000       4.67403
10.7858       125100       4.67158
10.7944       125200       4.66913
10.803       125300       4.66668
10.8117       125400       4.66424
10.8203       125500       4.6618
10.8289       125600       4.65936
10.8375       125700       4.65692
10.8461       125800       4.65449
10.8548       125900       4.65206
10.8634       126000       4.64964
10.872       126100       4.64721
10.8806       126200       4.64479
10.8893       126300       4.64238
10.8979       126400       4.63996
10.9065       126500       4.63755
10.9151       126600       4.63514
10.9237       126700       4.63274
10.9324       126800       4.63034
10.941       126900       4.62794
10.9496       127000       4.62554
10.9582       127100       4.62315
10.9669       127200       4.62075
10.9755       127300       4.61837
10.9841       127400       4.61598
10.9927       127500       4.6136
11.0013       127600       4.61122
11.01       127700       4.60884
11.0186       127800       4.60647
11.0272       127900       4.6041
11.0358       128000       4.60173
11.0444       128100       4.59937
11.0531       128200       4.597
11.0617       128300       4.59464
11.0703       128400       4.59229
11.0789       128500       4.58993
11.0876       128600       4.58758
11.0962       128700       4.58524
11.1048       128800       4.58289
11.1134       128900       4.58055
11.122       129000       4.57821
11.1307       129100       4.57587
11.1393       129200       4.57354
11.1479       129300       4.57121
11.1565       129400       4.56888
11.1652       129500       4.56655
11.1738       129600       4.56423
11.1824       129700       4.56191
11.191       129800       4.55959
11.1996       129900       4.55728
11.2083       130000       4.55497
11.2169       130100       4.55266
11.2255       130200       4.55035
11.2341       130300       4.54805
11.2427       130400       4.54575
11.2514       130500       4.54345
11.26       130600       4.54115
11.2686       130700       4.53886
11.2772       130800       4.53657
11.2859       130900       4.53429
11.2945       131000       4.532
11.3031       131100       4.52972
11.3117       131200       4.52744
11.3203       131300       4.52516
11.329       131400       4.52289
11.3376       131500       4.52062
11.3462       131600       4.51835
11.3548       131700       4.51609
11.3635       131800       4.51382
11.3721       131900       4.51156
11.3807       132000       4.50931
11.3893       132100       4.50705
11.3979       132200       4.5048
11.4066       132300       4.50255
11.4152       132400       4.5003
11.4238       132500       4.49806
11.4324       132600       4.49582
11.441       132700       4.49358
11.4497       132800       4.49134
11.4583       132900       4.48911
11.4669       133000       4.48688
11.4755       133100       4.48465
11.4842       133200       4.48242
11.4928       133300       4.4802
11.5014       133400       4.47798
11.51       133500       4.47576
11.5186       133600       4.47354
11.5273       133700       4.47133
11.5359       133800       4.46912
11.5445       133900       4.46691
11.5531       134000       4.46471
11.5618       134100       4.4625
11.5704       134200       4.4603
11.579       134300       4.45811
11.5876       134400       4.45591
11.5962       134500       4.45372
11.6049       134600       4.45153
11.6135       134700       4.44934
11.6221       134800       4.44716
11.6307       134900       4.44498
11.6393       135000       4.4428
11.648       135100       4.44062
11.6566       135200       4.43844
11.6652       135300       4.43627
11.6738       135400       4.4341
11.6825       135500       4.43193
11.6911       135600       4.42977
11.6997       135700       4.42761
11.7083       135800       4.42545
11.7169       135900       4.42329
11.7256       136000       4.42114
11.7342       136100       4.41898
11.7428       136200       4.41683
11.7514       136300       4.41469
11.7601       136400       4.41254
11.7687       136500       4.4104
11.7773       136600       4.40826
11.7859       136700       4.40612
11.7945       136800       4.40399
11.8032       136900       4.40186
11.8118       137000       4.39972
11.8204       137100       4.3976
11.829       137200       4.39547
11.8376       137300       4.39335
11.8463       137400       4.39123
11.8549       137500       4.38911
11.8635       137600       4.387
11.8721       137700       4.38488
11.8808       137800       4.38277
11.8894       137900       4.38066
11.898       138000       4.37856
11.9066       138100       4.37645
11.9152       138200       4.37435
11.9239       138300       4.37225
11.9325       138400       4.37016
11.9411       138500       4.36806
11.9497       138600       4.36597
11.9584       138700       4.36388
11.967       138800       4.3618
11.9756       138900       4.35971
11.9842       139000       4.35763
11.9928       139100       4.35555
12.0015       139200       4.35347
12.0101       139300       4.3514
12.0187       139400       4.34932
12.0273       139500       4.34725
12.0359       139600       4.34519
12.0446       139700       4.34312
12.0532       139800       4.34106
12.0618       139900       4.339
12.0704       140000       4.33694
12.0791       140100       4.33488
12.0877       140200       4.33283
12.0963       140300       4.33077
12.1049       140400       4.32872
12.1135       140500       4.32668
12.1222       140600       4.32463
12.1308       140700       4.32259
12.1394       140800       4.32055
12.148       140900       4.31851
12.1567       141000       4.31648
12.1653       141100       4.31444
12.1739       141200       4.31241
12.1825       141300       4.31038
12.1911       141400       4.30836
12.1998       141500       4.30633
12.2084       141600       4.30431
12.217       141700       4.30229
12.2256       141800       4.30027
12.2342       141900       4.29826
12.2429       142000       4.29624
12.2515       142100       4.29423
12.2601       142200       4.29222
12.2687       142300       4.29022
12.2774       142400       4.28821
12.286       142500       4.28621
12.2946       142600       4.28421
12.3032       142700       4.28221
12.3118       142800       4.28022
12.3205       142900       4.27822
12.3291       143000       4.27623
12.3377       143100       4.27425
12.3463       143200       4.27226
12.355       143300       4.27027
12.3636       143400       4.26829
12.3722       143500       4.26631
12.3808       143600       4.26433
12.3894       143700       4.26236
12.3981       143800       4.26039
12.4067       143900       4.25841
12.4153       144000       4.25645
12.4239       144100       4.25448
12.4325       144200       4.25251
12.4412       144300       4.25055
12.4498       144400       4.24859
12.4584       144500       4.24663
12.467       144600       4.24468
12.4757       144700       4.24272
12.4843       144800       4.24077
12.4929       144900       4.23882
12.5015       145000       4.23687
12.5101       145100       4.23493
12.5188       145200       4.23299
12.5274       145300       4.23104
12.536       145400       4.22911
12.5446       145500       4.22717
12.5533       145600       4.22523
12.5619       145700       4.2233
12.5705       145800       4.22137
12.5791       145900       4.21944
12.5877       146000       4.21752
12.5964       146100       4.21559
12.605       146200       4.21367
12.6136       146300       4.21175
12.6222       146400       4.20983
12.6308       146500       4.20792
12.6395       146600       4.206
12.6481       146700       4.20409
12.6567       146800       4.20218
12.6653       146900       4.20027
12.674       147000       4.19837
12.6826       147100       4.19646
12.6912       147200       4.19456
12.6998       147300       4.19266
12.7084       147400       4.19077
12.7171       147500       4.18887
12.7257       147600       4.18698
12.7343       147700       4.18509
12.7429       147800       4.1832
12.7516       147900       4.18131
12.7602       148000       4.17943
12.7688       148100       4.17754
12.7774       148200       4.17566
12.786       148300       4.17378
12.7947       148400       4.17191
12.8033       148500       4.17003
12.8119       148600       4.16816
12.8205       148700       4.16629
12.8291       148800       4.16442
12.8378       148900       4.16255
12.8464       149000       4.16069
12.855       149100       4.15883
12.8636       149200       4.15696
12.8723       149300       4.15511
12.8809       149400       4.15325
12.8895       149500       4.15139
12.8981       149600       4.14954
12.9067       149700       4.14769
12.9154       149800       4.14584
12.924       149900       4.14399
12.9326       150000       4.14215
12.9412       150100       4.14031
12.9499       150200       4.13847
12.9585       150300       4.13663
12.9671       150400       4.13479
12.9757       150500       4.13295
12.9843       150600       4.13112
12.993       150700       4.12929
13.0016       150800       4.12746
13.0102       150900       4.12563
13.0188       151000       4.12381
13.0274       151100       4.12199
13.0361       151200       4.12016
13.0447       151300       4.11834
13.0533       151400       4.11653
13.0619       151500       4.11471
13.0706       151600       4.1129
13.0792       151700       4.11109
13.0878       151800       4.10928
13.0964       151900       4.10747
13.105       152000       4.10566
13.1137       152100       4.10386
13.1223       152200       4.10206
13.1309       152300       4.10026
13.1395       152400       4.09846
13.1482       152500       4.09666
13.1568       152600       4.09487
13.1654       152700       4.09307
13.174       152800       4.09128
13.1826       152900       4.08949
13.1913       153000       4.08771
13.1999       153100       4.08592
13.2085       153200       4.08414
13.2171       153300       4.08236
13.2257       153400       4.08058
13.2344       153500       4.0788
13.243       153600       4.07702
13.2516       153700       4.07525
13.2602       153800       4.07348
13.2689       153900       4.07171
13.2775       154000       4.06994
13.2861       154100       4.06817
13.2947       154200       4.06641
13.3033       154300       4.06464
13.312       154400       4.06288
13.3206       154500       4.06112
13.3292       154600       4.05937
13.3378       154700       4.05761
13.3465       154800       4.05586
13.3551       154900       4.0541
13.3637       155000       4.05235
13.3723       155100       4.05061
13.3809       155200       4.04886
13.3896       155300       4.04712
13.3982       155400       4.04537
13.4068       155500       4.04363
13.4154       155600       4.04189
13.424       155700       4.04016
13.4327       155800       4.03842
13.4413       155900       4.03669
13.4499       156000       4.03495
13.4585       156100       4.03322
13.4672       156200       4.0315
13.4758       156300       4.02977
13.4844       156400       4.02804
13.493       156500       4.02632
13.5016       156600       4.0246
13.5103       156700       4.02288
13.5189       156800       4.02116
13.5275       156900       4.01945
13.5361       157000       4.01773
13.5448       157100       4.01602
13.5534       157200       4.01431
13.562       157300       4.0126
13.5706       157400       4.01089
13.5792       157500       4.00919
13.5879       157600       4.00749
13.5965       157700       4.00578
13.6051       157800       4.00408
13.6137       157900       4.00239
13.6223       158000       4.00069
13.631       158100       3.99899
13.6396       158200       3.9973
13.6482       158300       3.99561
13.6568       158400       3.99392
13.6655       158500       3.99223
13.6741       158600       3.99055
13.6827       158700       3.98886
13.6913       158800       3.98718
13.6999       158900       3.9855
13.7086       159000       3.98382
13.7172       159100       3.98214
13.7258       159200       3.98047
13.7344       159300       3.97879
13.7431       159400       3.97712
13.7517       159500       3.97545
13.7603       159600       3.97378
13.7689       159700       3.97211
13.7775       159800       3.97045
13.7862       159900       3.96878
13.7948       160000       3.96712
13.8034       160100       3.96546
13.812       160200       3.9638
13.8206       160300       3.96215
13.8293       160400       3.96049
13.8379       160500       3.95884
13.8465       160600       3.95718
13.8551       160700       3.95553
13.8638       160800       3.95389
13.8724       160900       3.95224
13.881       161000       3.95059
13.8896       161100       3.94895
13.8982       161200       3.94731
13.9069       161300       3.94567
13.9155       161400       3.94403
13.9241       161500       3.94239
13.9327       161600       3.94076
13.9414       161700       3.93912
13.95       161800       3.93749
13.9586       161900       3.93586
13.9672       162000       3.93423
13.9758       162100       3.9326
13.9845       162200       3.93098
13.9931       162300       3.92935
14.0017       162400       3.92773
14.0103       162500       3.92611
14.0189       162600       3.92449
14.0276       162700       3.92288
14.0362       162800       3.92126
14.0448       162900       3.91965
14.0534       163000       3.91803
14.0621       163100       3.91642
14.0707       163200       3.91481
14.0793       163300       3.91321
14.0879       163400       3.9116
14.0965       163500       3.91
14.1052       163600       3.90839
14.1138       163700       3.90679
14.1224       163800       3.90519
14.131       163900       3.90359
14.1397       164000       3.902
14.1483       164100       3.9004
14.1569       164200       3.89881
14.1655       164300       3.89722
14.1741       164400       3.89563
14.1828       164500       3.89404
14.1914       164600       3.89245
14.2       164700       3.89087
14.2086       164800       3.88928
14.2172       164900       3.8877
14.2259       165000       3.88612
14.2345       165100       3.88454
14.2431       165200       3.88297
14.2517       165300       3.88139
14.2604       165400       3.87982
14.269       165500       3.87824
14.2776       165600       3.87667
14.2862       165700       3.8751
14.2948       165800       3.87353
14.3035       165900       3.87197
14.3121       166000       3.8704
14.3207       166100       3.86884
14.3293       166200       3.86728
14.338       166300       3.86572
14.3466       166400       3.86416
14.3552       166500       3.8626
14.3638       166600       3.86105
14.3724       166700       3.85949
14.3811       166800       3.85794
14.3897       166900       3.85639
14.3983       167000       3.85484
14.4069       167100       3.85329
14.4155       167200       3.85174
14.4242       167300       3.8502
14.4328       167400       3.84866
14.4414       167500       3.84711
14.45       167600       3.84557
14.4587       167700       3.84403
14.4673       167800       3.8425
14.4759       167900       3.84096
14.4845       168000       3.83943
14.4931       168100       3.83789
14.5018       168200       3.83636
14.5104       168300       3.83483
14.519       168400       3.83331
14.5276       168500       3.83178
14.5363       168600       3.83025
14.5449       168700       3.82873
14.5535       168800       3.82721
14.5621       168900       3.82569
14.5707       169000       3.82417
14.5794       169100       3.82265
14.588       169200       3.82113
14.5966       169300       3.81962
14.6052       169400       3.8181
14.6138       169500       3.81659
14.6225       169600       3.81508
14.6311       169700       3.81357
14.6397       169800       3.81207
14.6483       169900       3.81056
14.657       170000       3.80906
14.6656       170100       3.80755
14.6742       170200       3.80605
14.6828       170300       3.80455
14.6914       170400       3.80305
14.7001       170500       3.80155
14.7087       170600       3.80006
14.7173       170700       3.79856
14.7259       170800       3.79707
14.7346       170900       3.79558
14.7432       171000       3.79409
14.7518       171100       3.7926
14.7604       171200       3.79111
14.769       171300       3.78963
14.7777       171400       3.78814
14.7863       171500       3.78666
14.7949       171600       3.78518
14.8035       171700       3.7837
14.8121       171800       3.78222
14.8208       171900       3.78075
14.8294       172000       3.77927
14.838       172100       3.7778
14.8466       172200       3.77632
14.8553       172300       3.77485
14.8639       172400       3.77338
14.8725       172500       3.77191
14.8811       172600       3.77045
14.8897       172700       3.76898
14.8984       172800       3.76752
14.907       172900       3.76605
14.9156       173000       3.76459
14.9242       173100       3.76313
14.9329       173200       3.76167
14.9415       173300       3.76022
14.9501       173400       3.75876
14.9587       173500       3.75731
14.9673       173600       3.75585
14.976       173700       3.7544
14.9846       173800       3.75295
14.9932       173900       3.7515
15.0018       174000       3.75005
15.0104       174100       3.74861
15.0191       174200       3.74716
15.0277       174300       3.74572
15.0363       174400       3.74428
15.0449       174500       3.74284
15.0536       174600       3.7414
15.0622       174700       3.73996
15.0708       174800       3.73852
15.0794       174900       3.73709
15.088       175000       3.73565
15.0967       175100       3.73422
15.1053       175200       3.73279
15.1139       175300       3.73136
15.1225       175400       3.72993
15.1312       175500       3.72851
15.1398       175600       3.72708
15.1484       175700       3.72566
15.157       175800       3.72423
15.1656       175900       3.72281
15.1743       176000       3.72139
15.1829       176100       3.71997
15.1915       176200       3.71856
15.2001       176300       3.71714
15.2087       176400       3.71573
15.2174       176500       3.71431
15.226       176600       3.7129
15.2346       176700       3.71149
15.2432       176800       3.71008
15.2519       176900       3.70867
15.2605       177000       3.70727
15.2691       177100       3.70586
15.2777       177200       3.70446
15.2863       177300       3.70305
15.295       177400       3.70165
15.3036       177500       3.70025
15.3122       177600       3.69885
15.3208       177700       3.69746
15.3295       177800       3.69606
15.3381       177900       3.69466
15.3467       178000       3.69327
15.3553       178100       3.69188
15.3639       178200       3.69049
15.3726       178300       3.6891
15.3812       178400       3.68771
15.3898       178500       3.68632
15.3984       178600       3.68494
15.407       178700       3.68355
15.4157       178800       3.68217
15.4243       178900       3.68079
15.4329       179000       3.67941
15.4415       179100       3.67803
15.4502       179200       3.67665
15.4588       179300       3.67527
15.4674       179400       3.6739
15.476       179500       3.67253
15.4846       179600       3.67115
15.4933       179700       3.66978
15.5019       179800       3.66841
15.5105       179900       3.66704
15.5191       180000       3.66567
15.5278       180100       3.66431
15.5364       180200       3.66294
15.545       180300       3.66158
15.5536       180400       3.66022
15.5622       180500       3.65886
15.5709       180600       3.6575
15.5795       180700       3.65614
15.5881       180800       3.65478
15.5967       180900       3.65342
15.6053       181000       3.65207
15.614       181100       3.65072
15.6226       181200       3.64936
15.6312       181300       3.64801
15.6398       181400       3.64666
15.6485       181500       3.64531
15.6571       181600       3.64397
15.6657       181700       3.64262
15.6743       181800       3.64128
15.6829       181900       3.63993
15.6916       182000       3.63859
15.7002       182100       3.63725
15.7088       182200       3.63591
15.7174       182300       3.63457
15.7261       182400       3.63323
15.7347       182500       3.6319
15.7433       182600       3.63056
15.7519       182700       3.62923
15.7605       182800       3.6279
15.7692       182900       3.62657
15.7778       183000       3.62524
15.7864       183100       3.62391
15.795       183200       3.62258
15.8036       183300       3.62125
15.8123       183400       3.61993
15.8209       183500       3.6186
15.8295       183600       3.61728
15.8381       183700       3.61596
15.8468       183800       3.61464
15.8554       183900       3.61332
15.864       184000       3.612
15.8726       184100       3.61069
15.8812       184200       3.60937
15.8899       184300       3.60806
15.8985       184400       3.60674
15.9071       184500       3.60543
15.9157       184600       3.60412
15.9244       184700       3.60281
15.933       184800       3.60151
15.9416       184900       3.6002
15.9502       185000       3.59889
15.9588       185100       3.59759
15.9675       185200       3.59629
15.9761       185300       3.59498
15.9847       185400       3.59368
15.9933       185500       3.59238
16.0019       185600       3.59108
16.0106       185700       3.58979
16.0192       185800       3.58849
16.0278       185900       3.5872
16.0364       186000       3.5859
16.0451       186100       3.58461
16.0537       186200       3.58332
16.0623       186300       3.58203
16.0709       186400       3.58074
16.0795       186500       3.57945
16.0882       186600       3.57816
16.0968       186700       3.57688
16.1054       186800       3.5756
16.114       186900       3.57431
16.1227       187000       3.57303
16.1313       187100       3.57175
16.1399       187200       3.57047
16.1485       187300       3.56919
16.1571       187400       3.56791
16.1658       187500       3.56664
16.1744       187600       3.56536
16.183       187700       3.56409
16.1916       187800       3.56282
16.2002       187900       3.56154
16.2089       188000       3.56027
16.2175       188100       3.559
16.2261       188200       3.55774
16.2347       188300       3.55647
16.2434       188400       3.5552
16.252       188500       3.55394
16.2606       188600       3.55268
16.2692       188700       3.55141
16.2778       188800       3.55015
16.2865       188900       3.54889
16.2951       189000       3.54763
16.3037       189100       3.54638
16.3123       189200       3.54512
16.321       189300       3.54386
16.3296       189400       3.54261
16.3382       189500       3.54136
16.3468       189600       3.5401
16.3554       189700       3.53885
16.3641       189800       3.5376
16.3727       189900       3.53635
16.3813       190000       3.53511
16.3899       190100       3.53386
16.3985       190200       3.53262
16.4072       190300       3.53137
16.4158       190400       3.53013
16.4244       190500       3.52889
16.433       190600       3.52764
16.4417       190700       3.52641
16.4503       190800       3.52517
16.4589       190900       3.52393
16.4675       191000       3.52269
16.4761       191100       3.52146
16.4848       191200       3.52022
16.4934       191300       3.51899
16.502       191400       3.51776
16.5106       191500       3.51653
16.5193       191600       3.5153
16.5279       191700       3.51407
16.5365       191800       3.51284
16.5451       191900       3.51161
16.5537       192000       3.51039
16.5624       192100       3.50916
16.571       192200       3.50794
16.5796       192300       3.50672
16.5882       192400       3.5055
16.5968       192500       3.50428
16.6055       192600       3.50306
16.6141       192700       3.50184
16.6227       192800       3.50063
16.6313       192900       3.49941
16.64       193000       3.4982
16.6486       193100       3.49698
16.6572       193200       3.49577
16.6658       193300       3.49456
16.6744       193400       3.49335
16.6831       193500       3.49214
16.6917       193600       3.49093
16.7003       193700       3.48972
16.7089       193800       3.48852
16.7175       193900       3.48731
16.7262       194000       3.48611
16.7348       194100       3.48491
16.7434       194200       3.48371
16.752       194300       3.4825
16.7607       194400       3.48131
16.7693       194500       3.48011
16.7779       194600       3.47891
16.7865       194700       3.47771
16.7951       194800       3.47652
16.8038       194900       3.47532
16.8124       195000       3.47413
16.821       195100       3.47294
16.8296       195200       3.47175
16.8383       195300       3.47056
16.8469       195400       3.46937
16.8555       195500       3.46818
16.8641       195600       3.46699
16.8727       195700       3.46581
16.8814       195800       3.46462
16.89       195900       3.46344
16.8986       196000       3.46226
16.9072       196100       3.46108
16.9158       196200       3.4599
16.9245       196300       3.45872
16.9331       196400       3.45754
16.9417       196500       3.45636
16.9503       196600       3.45518
16.959       196700       3.45401
16.9676       196800       3.45283
16.9762       196900       3.45166
16.9848       197000       3.45049
16.9934       197100       3.44932
17.0021       197200       3.44815
17.0107       197300       3.44698
17.0193       197400       3.44581
17.0279       197500       3.44464
17.0366       197600       3.44348
17.0452       197700       3.44231
17.0538       197800       3.44115
17.0624       197900       3.43998
17.071       198000       3.43882
17.0797       198100       3.43766
17.0883       198200       3.4365
17.0969       198300       3.43534
17.1055       198400       3.43418
17.1141       198500       3.43303
17.1228       198600       3.43187
17.1314       198700       3.43072
17.14       198800       3.42956
17.1486       198900       3.42841
17.1573       199000       3.42726
17.1659       199100       3.42611
17.1745       199200       3.42496
17.1831       199300       3.42381
17.1917       199400       3.42266
17.2004       199500       3.42151
17.209       199600       3.42037
17.2176       199700       3.41922
17.2262       199800       3.41808
17.2349       199900       3.41694
17.2435       200000       3.41579
17.2521       200100       3.41465
17.2607       200200       3.41351
17.2693       200300       3.41237
17.278       200400       3.41124
17.2866       200500       3.4101
17.2952       200600       3.40896
17.3038       200700       3.40783
17.3124       200800       3.4067
17.3211       200900       3.40556
17.3297       201000       3.40443
17.3383       201100       3.4033
17.3469       201200       3.40217
17.3556       201300       3.40104
17.3642       201400       3.39991
17.3728       201500       3.39878
17.3814       201600       3.39766
17.39       201700       3.39653
17.3987       201800       3.39541
17.4073       201900       3.39429
17.4159       202000       3.39316
17.4245       202100       3.39204
17.4332       202200       3.39092
17.4418       202300       3.3898
17.4504       202400       3.38868
17.459       202500       3.38757
17.4676       202600       3.38645
17.4763       202700       3.38534
17.4849       202800       3.38422
17.4935       202900       3.38311
17.5021       203000       3.38199
17.5107       203100       3.38088
17.5194       203200       3.37977
17.528       203300       3.37866
17.5366       203400       3.37755
17.5452       203500       3.37645
17.5539       203600       3.37534
17.5625       203700       3.37423
17.5711       203800       3.37313
17.5797       203900       3.37202
17.5883       204000       3.37092
17.597       204100       3.36982
17.6056       204200       3.36872
17.6142       204300       3.36762
17.6228       204400       3.36652
17.6315       204500       3.36542
17.6401       204600       3.36432
17.6487       204700       3.36323
17.6573       204800       3.36213
17.6659       204900       3.36104
17.6746       205000       3.35994
17.6832       205100       3.35885
17.6918       205200       3.35776
17.7004       205300       3.35667
17.709       205400       3.35558
17.7177       205500       3.35449
17.7263       205600       3.3534
17.7349       205700       3.35231
17.7435       205800       3.35123
17.7522       205900       3.35014
17.7608       206000       3.34906
17.7694       206100       3.34797
17.778       206200       3.34689
17.7866       206300       3.34581
17.7953       206400       3.34473
17.8039       206500       3.34365
17.8125       206600       3.34257
17.8211       206700       3.34149
17.8298       206800       3.34042
17.8384       206900       3.33934
17.847       207000       3.33826
17.8556       207100       3.33719
17.8642       207200       3.33612
17.8729       207300       3.33504
17.8815       207400       3.33397
17.8901       207500       3.3329
17.8987       207600       3.33183
17.9073       207700       3.33076
17.916       207800       3.3297
17.9246       207900       3.32863
17.9332       208000       3.32756
17.9418       208100       3.3265
17.9505       208200       3.32543
17.9591       208300       3.32437
17.9677       208400       3.32331
17.9763       208500       3.32225
17.9849       208600       3.32119
17.9936       208700       3.32013
18.0022       208800       3.31907
18.0108       208900       3.31801
18.0194       209000       3.31695
18.0281       209100       3.3159
18.0367       209200       3.31484
18.0453       209300       3.31379
18.0539       209400       3.31273
18.0625       209500       3.31168
18.0712       209600       3.31063
18.0798       209700       3.30958
18.0884       209800       3.30853
18.097       209900       3.30748
18.1056       210000       3.30643
18.1143       210100       3.30538
18.1229       210200       3.30434
18.1315       210300       3.30329
18.1401       210400       3.30225
18.1488       210500       3.3012
18.1574       210600       3.30016
18.166       210700       3.29912
18.1746       210800       3.29808
18.1832       210900       3.29704
18.1919       211000       3.296
18.2005       211100       3.29496
18.2091       211200       3.29392
18.2177       211300       3.29288
18.2264       211400       3.29185
18.235       211500       3.29081
18.2436       211600       3.28978
18.2522       211700       3.28875
18.2608       211800       3.28771
18.2695       211900       3.28668
18.2781       212000       3.28565
18.2867       212100       3.28462
18.2953       212200       3.28359
18.3039       212300       3.28256
18.3126       212400       3.28154
18.3212       212500       3.28051
18.3298       212600       3.27948
18.3384       212700       3.27846
18.3471       212800       3.27744
18.3557       212900       3.27641
18.3643       213000       3.27539
18.3729       213100       3.27437
18.3815       213200       3.27335
18.3902       213300       3.27233
18.3988       213400       3.27131
18.4074       213500       3.27029
18.416       213600       3.26928
18.4247       213700       3.26826
18.4333       213800       3.26724
18.4419       213900       3.26623
18.4505       214000       3.26522
18.4591       214100       3.2642
18.4678       214200       3.26319
18.4764       214300       3.26218
18.485       214400       3.26117
18.4936       214500       3.26016
18.5022       214600       3.25915
18.5109       214700       3.25814
18.5195       214800       3.25714
18.5281       214900       3.25613
18.5367       215000       3.25513
18.5454       215100       3.25412
18.554       215200       3.25312
18.5626       215300       3.25211
18.5712       215400       3.25111
18.5798       215500       3.25011
18.5885       215600       3.24911
18.5971       215700       3.24811
18.6057       215800       3.24711
18.6143       215900       3.24612
18.623       216000       3.24512
18.6316       216100       3.24412
18.6402       216200       3.24313
18.6488       216300       3.24213
18.6574       216400       3.24114
18.6661       216500       3.24015
18.6747       216600       3.23915
18.6833       216700       3.23816
18.6919       216800       3.23717
18.7005       216900       3.23618
18.7092       217000       3.23519
18.7178       217100       3.23421
18.7264       217200       3.23322
18.735       217300       3.23223
18.7437       217400       3.23125
18.7523       217500       3.23026
18.7609       217600       3.22928
18.7695       217700       3.2283
18.7781       217800       3.22731
18.7868       217900       3.22633
18.7954       218000       3.22535
18.804       218100       3.22437
18.8126       218200       3.22339
18.8213       218300       3.22241
18.8299       218400       3.22144
18.8385       218500       3.22046
18.8471       218600       3.21948
18.8557       218700       3.21851
18.8644       218800       3.21754
18.873       218900       3.21656
18.8816       219000       3.21559
18.8902       219100       3.21462
18.8988       219200       3.21365
18.9075       219300       3.21268
18.9161       219400       3.21171
18.9247       219500       3.21074
18.9333       219600       3.20977
18.942       219700       3.2088
18.9506       219800       3.20784
18.9592       219900       3.20687
18.9678       220000       3.20591
18.9764       220100       3.20494
18.9851       220200       3.20398
18.9937       220300       3.20302
19.0023       220400       3.20206
19.0109       220500       3.20109
19.0196       220600       3.20014
19.0282       220700       3.19918
19.0368       220800       3.19822
19.0454       220900       3.19726
19.054       221000       3.1963
19.0627       221100       3.19535
19.0713       221200       3.19439
19.0799       221300       3.19344
19.0885       221400       3.19248
19.0971       221500       3.19153
19.1058       221600       3.19058
19.1144       221700       3.18963
19.123       221800       3.18868
19.1316       221900       3.18773
19.1403       222000       3.18678
19.1489       222100       3.18583
19.1575       222200       3.18488
19.1661       222300       3.18393
19.1747       222400       3.18299
19.1834       222500       3.18204
19.192       222600       3.1811
19.2006       222700       3.18016
19.2092       222800       3.17921
19.2179       222900       3.17827
19.2265       223000       3.17733
19.2351       223100       3.17639
19.2437       223200       3.17545
19.2523       223300       3.17451
19.261       223400       3.17357
19.2696       223500       3.17263
19.2782       223600       3.1717
19.2868       223700       3.17076
19.2954       223800       3.16982
19.3041       223900       3.16889
19.3127       224000       3.16796
19.3213       224100       3.16702
19.3299       224200       3.16609
19.3386       224300       3.16516
19.3472       224400       3.16423
19.3558       224500       3.1633
19.3644       224600       3.16237
19.373       224700       3.16144
19.3817       224800       3.16051
19.3903       224900       3.15959
19.3989       225000       3.15866
19.4075       225100       3.15773
19.4162       225200       3.15681
19.4248       225300       3.15589
19.4334       225400       3.15496
19.442       225500       3.15404
19.4506       225600       3.15312
19.4593       225700       3.1522
19.4679       225800       3.15128
19.4765       225900       3.15036
19.4851       226000       3.14944
19.4937       226100       3.14852
19.5024       226200       3.1476
19.511       226300       3.14669
19.5196       226400       3.14577
19.5282       226500       3.14485
19.5369       226600       3.14394
19.5455       226700       3.14303
19.5541       226800       3.14211
19.5627       226900       3.1412
19.5713       227000       3.14029
19.58       227100       3.13938
19.5886       227200       3.13847
19.5972       227300       3.13756
19.6058       227400       3.13665
19.6145       227500       3.13574
19.6231       227600       3.13484
19.6317       227700       3.13393
19.6403       227800       3.13302
19.6489       227900       3.13212
19.6576       228000       3.13121
19.6662       228100       3.13031
19.6748       228200       3.12941
19.6834       228300       3.12851
19.692       228400       3.1276
19.7007       228500       3.1267
19.7093       228600       3.1258
19.7179       228700       3.1249
19.7265       228800       3.12401
19.7352       228900       3.12311
19.7438       229000       3.12221
19.7524       229100       3.12131
19.761       229200       3.12042
19.7696       229300       3.11952
19.7783       229400       3.11863
19.7869       229500       3.11774
19.7955       229600       3.11684
19.8041       229700       3.11595
19.8128       229800       3.11506
19.8214       229900       3.11417
19.83       230000       3.11328
19.8386       230100       3.11239
19.8472       230200       3.1115
19.8559       230300       3.11061
19.8645       230400       3.10973
19.8731       230500       3.10884
19.8817       230600       3.10795
19.8903       230700       3.10707
19.899       230800       3.10619
19.9076       230900       3.1053
19.9162       231000       3.10442
19.9248       231100       3.10354
19.9335       231200       3.10266
19.9421       231300       3.10177
19.9507       231400       3.10089
19.9593       231500       3.10002
19.9679       231600       3.09914
19.9766       231700       3.09826
19.9852       231800       3.09738
19.9938       231900       3.0965
20.0024       232000       3.09563
20.0111       232100       3.09475
20.0197       232200       3.09388
20.0283       232300       3.093
20.0369       232400       3.09213
20.0455       232500       3.09126
20.0542       232600       3.09039
20.0628       232700       3.08952
20.0714       232800       3.08865
20.08       232900       3.08778
20.0886       233000       3.08691
20.0973       233100       3.08604
20.1059       233200       3.08517
20.1145       233300       3.0843
20.1231       233400       3.08344
20.1318       233500       3.08257
20.1404       233600       3.08171
20.149       233700       3.08084
20.1576       233800       3.07998
20.1662       233900       3.07912
20.1749       234000       3.07825
20.1835       234100       3.07739
20.1921       234200       3.07653
20.2007       234300       3.07567
20.2094       234400       3.07481
20.218       234500       3.07395
20.2266       234600       3.0731
20.2352       234700       3.07224
20.2438       234800       3.07138
20.2525       234900       3.07052
20.2611       235000       3.06967
20.2697       235100       3.06881
20.2783       235200       3.06796
20.2869       235300       3.06711
20.2956       235400       3.06625
20.3042       235500       3.0654
20.3128       235600       3.06455
20.3214       235700       3.0637
20.3301       235800       3.06285
20.3387       235900       3.062
20.3473       236000       3.06115
20.3559       236100       3.0603
20.3645       236200       3.05946
20.3732       236300       3.05861
20.3818       236400       3.05776
20.3904       236500       3.05692
20.399       236600       3.05607
20.4077       236700       3.05523
20.4163       236800       3.05439
20.4249       236900       3.05354
20.4335       237000       3.0527
20.4421       237100       3.05186
20.4508       237200       3.05102
20.4594       237300       3.05018
20.468       237400       3.04934
20.4766       237500       3.0485
20.4852       237600       3.04766
20.4939       237700       3.04682
20.5025       237800       3.04599
20.5111       237900       3.04515
20.5197       238000       3.04431
20.5284       238100       3.04348
20.537       238200       3.04265
20.5456       238300       3.04181
20.5542       238400       3.04098
20.5628       238500       3.04015
20.5715       238600       3.03931
20.5801       238700       3.03848
20.5887       238800       3.03765
20.5973       238900       3.03682
20.606       239000       3.03599
20.6146       239100       3.03517
20.6232       239200       3.03434
20.6318       239300       3.03351
20.6404       239400       3.03268
20.6491       239500       3.03186
20.6577       239600       3.03103
20.6663       239700       3.03021
20.6749       239800       3.02938
20.6835       239900       3.02856
20.6922       240000       3.02774
20.7008       240100       3.02692
20.7094       240200       3.02609
20.718       240300       3.02527
20.7267       240400       3.02445
20.7353       240500       3.02363
20.7439       240600       3.02282
20.7525       240700       3.022
20.7611       240800       3.02118
20.7698       240900       3.02036
20.7784       241000       3.01955
20.787       241100       3.01873
20.7956       241200       3.01792
20.8043       241300       3.0171
20.8129       241400       3.01629
20.8215       241500       3.01547
20.8301       241600       3.01466
20.8387       241700       3.01385
20.8474       241800       3.01304
20.856       241900       3.01223
20.8646       242000       3.01142
20.8732       242100       3.01061
20.8818       242200       3.0098
20.8905       242300       3.00899
20.8991       242400       3.00818
20.9077       242500       3.00738
20.9163       242600       3.00657
20.925       242700       3.00576
20.9336       242800       3.00496
20.9422       242900       3.00415
20.9508       243000       3.00335
20.9594       243100       3.00255
20.9681       243200       3.00174
20.9767       243300       3.00094
20.9853       243400       3.00014
20.9939       243500       2.99934
21.0026       243600       2.99854
21.0112       243700       2.99774
21.0198       243800       2.99694
21.0284       243900       2.99614
21.037       244000       2.99535
21.0457       244100       2.99455
21.0543       244200       2.99375
21.0629       244300       2.99296
21.0715       244400       2.99216
21.0801       244500       2.99137
21.0888       244600       2.99057
21.0974       244700       2.98978
21.106       244800       2.98899
21.1146       244900       2.98819
21.1233       245000       2.9874
21.1319       245100       2.98661
21.1405       245200       2.98582
21.1491       245300       2.98503
21.1577       245400       2.98424
21.1664       245500       2.98345
21.175       245600       2.98266
21.1836       245700       2.98188
21.1922       245800       2.98109
21.2009       245900       2.9803
21.2095       246000       2.97952
21.2181       246100       2.97873
21.2267       246200       2.97795
21.2353       246300       2.97717
21.244       246400       2.97638
21.2526       246500       2.9756
21.2612       246600       2.97482
21.2698       246700       2.97404
21.2784       246800       2.97326
21.2871       246900       2.97248
21.2957       247000       2.9717
21.3043       247100       2.97092
21.3129       247200       2.97014
21.3216       247300       2.96936
21.3302       247400       2.96858
21.3388       247500       2.96781
21.3474       247600       2.96703
21.356       247700       2.96626
21.3647       247800       2.96548
21.3733       247900       2.96471
21.3819       248000       2.96393
21.3905       248100       2.96316
21.3992       248200       2.96239
21.4078       248300       2.96161
21.4164       248400       2.96084
21.425       248500       2.96007
21.4336       248600       2.9593
21.4423       248700       2.95853
21.4509       248800       2.95776
21.4595       248900       2.957
21.4681       249000       2.95623
21.4767       249100       2.95546
21.4854       249200       2.95469
21.494       249300       2.95393
21.5026       249400       2.95316
21.5112       249500       2.9524
21.5199       249600       2.95163
21.5285       249700       2.95087
21.5371       249800       2.95011
21.5457       249900       2.94934
21.5543       250000       2.94858
21.563       250100       2.94782
21.5716       250200       2.94706
21.5802       250300       2.9463
21.5888       250400       2.94554
21.5975       250500       2.94478
21.6061       250600       2.94402
21.6147       250700       2.94326
21.6233       250800       2.94251
21.6319       250900       2.94175
21.6406       251000       2.94099
21.6492       251100       2.94024
21.6578       251200       2.93948
21.6664       251300       2.93873
21.675       251400       2.93797
21.6837       251500       2.93722
21.6923       251600       2.93647
21.7009       251700       2.93571
21.7095       251800       2.93496
21.7182       251900       2.93421
21.7268       252000       2.93346
21.7354       252100       2.93271
21.744       252200       2.93196
21.7526       252300       2.93121
21.7613       252400       2.93046
21.7699       252500       2.92972
21.7785       252600       2.92897
21.7871       252700       2.92822
21.7958       252800       2.92748
21.8044       252900       2.92673
21.813       253000       2.92599
21.8216       253100       2.92524
21.8302       253200       2.9245
21.8389       253300       2.92375
21.8475       253400       2.92301
21.8561       253500       2.92227
21.8647       253600       2.92153
21.8733       253700       2.92079
21.882       253800       2.92005
21.8906       253900       2.91931
21.8992       254000       2.91857
21.9078       254100       2.91783
21.9165       254200       2.91709
21.9251       254300       2.91635
21.9337       254400       2.91561
21.9423       254500       2.91488
21.9509       254600       2.91414
21.9596       254700       2.91341
21.9682       254800       2.91267
21.9768       254900       2.91194
21.9854       255000       2.9112
21.9941       255100       2.91047
22.0027       255200       2.90974
22.0113       255300       2.90901
22.0199       255400       2.90827
22.0285       255500       2.90754
22.0372       255600       2.90681
22.0458       255700       2.90608
22.0544       255800       2.90535
22.063       255900       2.90462
22.0716       256000       2.90389
22.0803       256100       2.90317
22.0889       256200       2.90244
22.0975       256300       2.90171
22.1061       256400       2.90099
22.1148       256500       2.90026
22.1234       256600       2.89954
22.132       256700       2.89881
22.1406       256800       2.89809
22.1492       256900       2.89736
22.1579       257000       2.89664
22.1665       257100       2.89592
22.1751       257200       2.8952
22.1837       257300       2.89447
22.1924       257400       2.89375
22.201       257500       2.89303
22.2096       257600       2.89231
22.2182       257700       2.89159
22.2268       257800       2.89088
22.2355       257900       2.89016
22.2441       258000       2.88944
22.2527       258100       2.88872
22.2613       258200       2.88801
22.2699       258300       2.88729
22.2786       258400       2.88658
22.2872       258500       2.88586
22.2958       258600       2.88515
22.3044       258700       2.88443
22.3131       258800       2.88372
22.3217       258900       2.88301
22.3303       259000       2.88229
22.3389       259100       2.88158
22.3475       259200       2.88087
22.3562       259300       2.88016
22.3648       259400       2.87945
22.3734       259500       2.87874
22.382       259600       2.87803
22.3907       259700       2.87732
22.3993       259800       2.87661
22.4079       259900       2.87591
22.4165       260000       2.8752
22.4251       260100       2.87449
22.4338       260200       2.87379
22.4424       260300       2.87308
22.451       260400       2.87238
22.4596       260500       2.87167
22.4682       260600       2.87097
22.4769       260700       2.87026
22.4855       260800       2.86956
22.4941       260900       2.86886
22.5027       261000       2.86816
22.5114       261100       2.86746
22.52       261200       2.86676
22.5286       261300       2.86606
22.5372       261400       2.86536
22.5458       261500       2.86466
22.5545       261600       2.86396
22.5631       261700       2.86326
22.5717       261800       2.86256
22.5803       261900       2.86186
22.589       262000       2.86117
22.5976       262100       2.86047
22.6062       262200       2.85978
22.6148       262300       2.85908
22.6234       262400       2.85839
22.6321       262500       2.85769
22.6407       262600       2.857
22.6493       262700       2.85631
22.6579       262800       2.85561
22.6665       262900       2.85492
22.6752       263000       2.85423
22.6838       263100       2.85354
22.6924       263200       2.85285
22.701       263300       2.85216
22.7097       263400       2.85147
22.7183       263500       2.85078
22.7269       263600       2.85009
22.7355       263700       2.8494
22.7441       263800       2.84872
22.7528       263900       2.84803
22.7614       264000       2.84734
22.77       264100       2.84666
22.7786       264200       2.84597
22.7873       264300       2.84529
22.7959       264400       2.8446
22.8045       264500       2.84392
22.8131       264600       2.84323
22.8217       264700       2.84255
22.8304       264800       2.84187
22.839       264900       2.84119
22.8476       265000       2.8405
22.8562       265100       2.83982
22.8648       265200       2.83914
22.8735       265300       2.83846
22.8821       265400       2.83778
22.8907       265500       2.8371
22.8993       265600       2.83643
22.908       265700       2.83575
22.9166       265800       2.83507
22.9252       265900       2.83439
22.9338       266000       2.83372
22.9424       266100       2.83304
22.9511       266200       2.83237
22.9597       266300       2.83169
22.9683       266400       2.83102
22.9769       266500       2.83034
22.9856       266600       2.82967
22.9942       266700       2.829
23.0028       266800       2.82832
23.0114       266900       2.82765
23.02       267000       2.82698
23.0287       267100       2.82631
23.0373       267200       2.82564
23.0459       267300       2.82497
23.0545       267400       2.8243
23.0631       267500       2.82363
23.0718       267600       2.82296
23.0804       267700       2.82229
23.089       267800       2.82162
23.0976       267900       2.82096
23.1063       268000       2.82029
23.1149       268100       2.81962
23.1235       268200       2.81896
23.1321       268300       2.81829
23.1407       268400       2.81763
23.1494       268500       2.81697
23.158       268600       2.8163
23.1666       268700       2.81564
23.1752       268800       2.81498
23.1839       268900       2.81431
23.1925       269000       2.81365
23.2011       269100       2.81299
23.2097       269200       2.81233
23.2183       269300       2.81167
23.227       269400       2.81101
23.2356       269500       2.81035
23.2442       269600       2.80969
23.2528       269700       2.80903
23.2614       269800       2.80837
23.2701       269900       2.80772
23.2787       270000       2.80706
23.2873       270100       2.8064
23.2959       270200       2.80575
23.3046       270300       2.80509
23.3132       270400       2.80444
23.3218       270500       2.80378
23.3304       270600       2.80313
23.339       270700       2.80247
23.3477       270800       2.80182
23.3563       270900       2.80117
23.3649       271000       2.80051
23.3735       271100       2.79986
23.3822       271200       2.79921
23.3908       271300       2.79856
23.3994       271400       2.79791
23.408       271500       2.79726
23.4166       271600       2.79661
23.4253       271700       2.79596
23.4339       271800       2.79531
23.4425       271900       2.79467
23.4511       272000       2.79402
23.4597       272100       2.79337
23.4684       272200       2.79272
23.477       272300       2.79208
23.4856       272400       2.79143
23.4942       272500       2.79079
23.5029       272600       2.79014
23.5115       272700       2.7895
23.5201       272800       2.78885
23.5287       272900       2.78821
23.5373       273000       2.78757
23.546       273100       2.78693
23.5546       273200       2.78628
23.5632       273300       2.78564
23.5718       273400       2.785
23.5805       273500       2.78436
23.5891       273600       2.78372
23.5977       273700       2.78308
23.6063       273800       2.78244
23.6149       273900       2.7818
23.6236       274000       2.78116
23.6322       274100       2.78053
23.6408       274200       2.77989
23.6494       274300       2.77925
23.658       274400       2.77862
23.6667       274500       2.77798
23.6753       274600       2.77734
23.6839       274700       2.77671
23.6925       274800       2.77607
23.7012       274900       2.77544
23.7098       275000       2.77481
23.7184       275100       2.77417
23.727       275200       2.77354
23.7356       275300       2.77291
23.7443       275400       2.77228
23.7529       275500       2.77164
23.7615       275600       2.77101
23.7701       275700       2.77038
23.7788       275800       2.76975
23.7874       275900       2.76912
23.796       276000       2.76849
23.8046       276100       2.76787
23.8132       276200       2.76724
23.8219       276300       2.76661
23.8305       276400       2.76598
23.8391       276500       2.76536
23.8477       276600       2.76473
23.8563       276700       2.7641
23.865       276800       2.76348
23.8736       276900       2.76285
23.8822       277000       2.76223
23.8908       277100       2.7616
23.8995       277200       2.76098
23.9081       277300       2.76036
23.9167       277400       2.75973
23.9253       277500       2.75911
23.9339       277600       2.75849
23.9426       277700       2.75787
23.9512       277800       2.75725
23.9598       277900       2.75663
23.9684       278000       2.756
23.9771       278100       2.75539
23.9857       278200       2.75477
23.9943       278300       2.75415
24.0029       278400       2.75353
24.0115       278500       2.75291
24.0202       278600       2.75229
24.0288       278700       2.75168
24.0374       278800       2.75106
24.046       278900       2.75044
24.0546       279000       2.74983
24.0633       279100       2.74921
24.0719       279200       2.7486
24.0805       279300       2.74798
24.0891       279400       2.74737
24.0978       279500       2.74675
24.1064       279600       2.74614
24.115       279700       2.74553
24.1236       279800       2.74492
24.1322       279900       2.7443
24.1409       280000       2.74369
24.1495       280100       2.74308
24.1581       280200       2.74247
24.1667       280300       2.74186
24.1754       280400       2.74125
24.184       280500       2.74064
24.1926       280600       2.74003
24.2012       280700       2.73943
24.2098       280800       2.73882
24.2185       280900       2.73821
24.2271       281000       2.7376
24.2357       281100       2.737
24.2443       281200       2.73639
24.2529       281300       2.73578
24.2616       281400       2.73518
24.2702       281500       2.73457
24.2788       281600       2.73397
24.2874       281700       2.73337
24.2961       281800       2.73276
24.3047       281900       2.73216
24.3133       282000       2.73156
24.3219       282100       2.73095
24.3305       282200       2.73035
24.3392       282300       2.72975
24.3478       282400       2.72915
24.3564       282500       2.72855
24.365       282600       2.72795
24.3737       282700       2.72735
24.3823       282800       2.72675
24.3909       282900       2.72615
24.3995       283000       2.72555
24.4081       283100       2.72495
24.4168       283200       2.72436
24.4254       283300       2.72376
24.434       283400       2.72316
24.4426       283500       2.72256
24.4512       283600       2.72197
24.4599       283700       2.72137
24.4685       283800       2.72078
24.4771       283900       2.72018
24.4857       284000       2.71959
24.4944       284100       2.719
24.503       284200       2.7184
24.5116       284300       2.71781
24.5202       284400       2.71722
24.5288       284500       2.71662
24.5375       284600       2.71603
24.5461       284700       2.71544
24.5547       284800       2.71485
24.5633       284900       2.71426
24.572       285000       2.71367
24.5806       285100       2.71308
24.5892       285200       2.71249
24.5978       285300       2.7119
24.6064       285400       2.71131
24.6151       285500       2.71072
24.6237       285600       2.71014
24.6323       285700       2.70955
24.6409       285800       2.70896
24.6495       285900       2.70838
24.6582       286000       2.70779
24.6668       286100       2.70721
24.6754       286200       2.70662
24.684       286300       2.70604
24.6927       286400       2.70545
24.7013       286500       2.70487
24.7099       286600       2.70428
24.7185       286700       2.7037
24.7271       286800       2.70312
24.7358       286900       2.70254
24.7444       287000       2.70195
24.753       287100       2.70137
24.7616       287200       2.70079
24.7703       287300       2.70021
24.7789       287400       2.69963
24.7875       287500       2.69905
24.7961       287600       2.69847
24.8047       287700       2.69789
24.8134       287800       2.69731
24.822       287900       2.69674
24.8306       288000       2.69616
24.8392       288100       2.69558
24.8478       288200       2.695
24.8565       288300       2.69443
24.8651       288400       2.69385
24.8737       288500       2.69328
24.8823       288600       2.6927
24.891       288700       2.69213
24.8996       288800       2.69155
24.9082       288900       2.69098
24.9168       289000       2.6904
24.9254       289100       2.68983
24.9341       289200       2.68926
24.9427       289300       2.68868
24.9513       289400       2.68811
24.9599       289500       2.68754
24.9686       289600       2.68697
24.9772       289700       2.6864
24.9858       289800       2.68583
24.9944       289900       2.68526
25.003       290000       2.68469
25.0117       290100       2.68412
25.0203       290200       2.68355
25.0289       290300       2.68298
25.0375       290400       2.68241
25.0461       290500       2.68185
25.0548       290600       2.68128
25.0634       290700       2.68071
25.072       290800       2.68014
25.0806       290900       2.67958
25.0893       291000       2.67901
25.0979       291100       2.67845
25.1065       291200       2.67788
25.1151       291300       2.67732
25.1237       291400       2.67675
25.1324       291500       2.67619
25.141       291600       2.67563
25.1496       291700       2.67506
25.1582       291800       2.6745
25.1669       291900       2.67394
25.1755       292000       2.67338
25.1841       292100       2.67282
25.1927       292200       2.67225
25.2013       292300       2.67169
25.21       292400       2.67113
25.2186       292500       2.67057
25.2272       292600       2.67001
25.2358       292700       2.66946
25.2444       292800       2.6689
25.2531       292900       2.66834
25.2617       293000       2.66778
25.2703       293100       2.66722
25.2789       293200       2.66667
25.2876       293300       2.66611
25.2962       293400       2.66555
25.3048       293500       2.665
25.3134       293600       2.66444
25.322       293700       2.66389
25.3307       293800       2.66333
25.3393       293900       2.66278
25.3479       294000       2.66222
25.3565       294100       2.66167
25.3652       294200       2.66112
25.3738       294300       2.66056
25.3824       294400       2.66001
25.391       294500       2.65946
25.3996       294600       2.65891
25.4083       294700       2.65836
25.4169       294800       2.65781
25.4255       294900       2.65725
25.4341       295000       2.6567
25.4427       295100       2.65615
25.4514       295200       2.65561
25.46       295300       2.65506
25.4686       295400       2.65451
25.4772       295500       2.65396
25.4859       295600       2.65341
25.4945       295700       2.65286
25.5031       295800       2.65232
25.5117       295900       2.65177
25.5203       296000       2.65122
25.529       296100       2.65068
25.5376       296200       2.65013
25.5462       296300       2.64959
25.5548       296400       2.64904
25.5635       296500       2.6485
25.5721       296600       2.64795
25.5807       296700       2.64741
25.5893       296800       2.64687
25.5979       296900       2.64632
25.6066       297000       2.64578
25.6152       297100       2.64524
25.6238       297200       2.6447
25.6324       297300       2.64416
25.641       297400       2.64361
25.6497       297500       2.64307
25.6583       297600       2.64253
25.6669       297700       2.64199
25.6755       297800       2.64145
25.6842       297900       2.64091
25.6928       298000       2.64038
25.7014       298100       2.63984
25.71       298200       2.6393
25.7186       298300       2.63876
25.7273       298400       2.63822
25.7359       298500       2.63769
25.7445       298600       2.63715
25.7531       298700       2.63661
25.7618       298800       2.63608
25.7704       298900       2.63554
25.779       299000       2.63501
25.7876       299100       2.63447
25.7962       299200       2.63394
25.8049       299300       2.63341
25.8135       299400       2.63287
25.8221       299500       2.63234
25.8307       299600       2.63181
25.8393       299700       2.63127
25.848       299800       2.63074
25.8566       299900       2.63021
25.8652       300000       2.62968
25.8738       300100       2.62915
25.8825       300200       2.62862
25.8911       300300       2.62809
25.8997       300400       2.62756
25.9083       300500       2.62703
25.9169       300600       2.6265
25.9256       300700       2.62597
25.9342       300800       2.62544
25.9428       300900       2.62491
25.9514       301000       2.62438
25.9601       301100       2.62386
25.9687       301200       2.62333
25.9773       301300       2.6228
25.9859       301400       2.62228
25.9945       301500       2.62175
26.0032       301600       2.62122
26.0118       301700       2.6207
26.0204       301800       2.62017
26.029       301900       2.61965
26.0376       302000       2.61913
26.0463       302100       2.6186
26.0549       302200       2.61808
26.0635       302300       2.61756
26.0721       302400       2.61703
26.0808       302500       2.61651
26.0894       302600       2.61599
26.098       302700       2.61547
26.1066       302800       2.61495
26.1152       302900       2.61442
26.1239       303000       2.6139
26.1325       303100       2.61338
26.1411       303200       2.61286
26.1497       303300       2.61234
26.1584       303400       2.61183
26.167       303500       2.61131
26.1756       303600       2.61079
26.1842       303700       2.61027
26.1928       303800       2.60975
26.2015       303900       2.60923
26.2101       304000       2.60872
26.2187       304100       2.6082
26.2273       304200       2.60768
26.2359       304300       2.60717
26.2446       304400       2.60665
26.2532       304500       2.60614
26.2618       304600       2.60562
26.2704       304700       2.60511
26.2791       304800       2.60459
26.2877       304900       2.60408
26.2963       305000       2.60357
26.3049       305100       2.60305
26.3135       305200       2.60254
26.3222       305300       2.60203
26.3308       305400       2.60152
26.3394       305500       2.60101
26.348       305600       2.60049
26.3567       305700       2.59998
26.3653       305800       2.59947
26.3739       305900       2.59896
26.3825       306000       2.59845
26.3911       306100       2.59794
26.3998       306200       2.59743
26.4084       306300       2.59692
26.417       306400       2.59642
26.4256       306500       2.59591
26.4342       306600       2.5954
26.4429       306700       2.59489
26.4515       306800       2.59438
26.4601       306900       2.59388
26.4687       307000       2.59337
26.4774       307100       2.59287
26.486       307200       2.59236
26.4946       307300       2.59185
26.5032       307400       2.59135
26.5118       307500       2.59084
26.5205       307600       2.59034
26.5291       307700       2.58984
26.5377       307800       2.58933
26.5463       307900       2.58883
26.555       308000       2.58833
26.5636       308100       2.58782
26.5722       308200       2.58732
26.5808       308300       2.58682
26.5894       308400       2.58632
26.5981       308500       2.58582
26.6067       308600       2.58531
26.6153       308700       2.58481
26.6239       308800       2.58431
26.6325       308900       2.58381
26.6412       309000       2.58331
26.6498       309100       2.58281
26.6584       309200       2.58232
26.667       309300       2.58182
26.6757       309400       2.58132
26.6843       309500       2.58082
26.6929       309600       2.58032
26.7015       309700       2.57983
26.7101       309800       2.57933
26.7188       309900       2.57883
26.7274       310000       2.57834
26.736       310100       2.57784
26.7446       310200       2.57735
26.7533       310300       2.57685
26.7619       310400       2.57636
26.7705       310500       2.57586
26.7791       310600       2.57537
26.7877       310700       2.57487
26.7964       310800       2.57438
26.805       310900       2.57389
26.8136       311000       2.57339
26.8222       311100       2.5729
26.8308       311200       2.57241
26.8395       311300       2.57192
26.8481       311400       2.57142
26.8567       311500       2.57093
26.8653       311600       2.57044
26.874       311700       2.56995
26.8826       311800       2.56946
26.8912       311900       2.56897
26.8998       312000       2.56848
26.9084       312100       2.56799
26.9171       312200       2.5675
26.9257       312300       2.56702
26.9343       312400       2.56653
26.9429       312500       2.56604
26.9516       312600       2.56555
26.9602       312700       2.56507
26.9688       312800       2.56458
26.9774       312900       2.56409
26.986       313000       2.56361
26.9947       313100       2.56312
27.0033       313200       2.56263
27.0119       313300       2.56215
27.0205       313400       2.56166
27.0291       313500       2.56118
27.0378       313600       2.5607
27.0464       313700       2.56021
27.055       313800       2.55973
27.0636       313900       2.55924
27.0723       314000       2.55876
27.0809       314100       2.55828
27.0895       314200       2.5578
27.0981       314300       2.55731
27.1067       314400       2.55683
27.1154       314500       2.55635
27.124       314600       2.55587
27.1326       314700       2.55539
27.1412       314800       2.55491
27.1499       314900       2.55443
27.1585       315000       2.55395
27.1671       315100       2.55347
27.1757       315200       2.55299
27.1843       315300       2.55251
27.193       315400       2.55203
27.2016       315500       2.55156
27.2102       315600       2.55108
27.2188       315700       2.5506
27.2274       315800       2.55012
27.2361       315900       2.54965
27.2447       316000       2.54917
27.2533       316100       2.54869
27.2619       316200       2.54822
27.2706       316300       2.54774
27.2792       316400       2.54727
27.2878       316500       2.54679
27.2964       316600       2.54632
27.305       316700       2.54584
27.3137       316800       2.54537
27.3223       316900       2.5449
27.3309       317000       2.54442
27.3395       317100       2.54395
27.3482       317200       2.54348
27.3568       317300       2.54301
27.3654       317400       2.54253
27.374       317500       2.54206
27.3826       317600       2.54159
27.3913       317700       2.54112
27.3999       317800       2.54065
27.4085       317900       2.54018
27.4171       318000       2.53971
27.4257       318100       2.53924
27.4344       318200       2.53877
27.443       318300       2.5383
27.4516       318400       2.53783
27.4602       318500       2.53736
27.4689       318600       2.5369
27.4775       318700       2.53643
27.4861       318800       2.53596
27.4947       318900       2.53549
27.5033       319000       2.53503
27.512       319100       2.53456
27.5206       319200       2.53409
27.5292       319300       2.53363
27.5378       319400       2.53316
27.5465       319500       2.5327
27.5551       319600       2.53223
27.5637       319700       2.53177
27.5723       319800       2.5313
27.5809       319900       2.53084
27.5896       320000       2.53037
27.5982       320100       2.52991
27.6068       320200       2.52945
27.6154       320300       2.52898
27.624       320400       2.52852
27.6327       320500       2.52806
27.6413       320600       2.5276
27.6499       320700       2.52714
27.6585       320800       2.52668
27.6672       320900       2.52621
27.6758       321000       2.52575
27.6844       321100       2.52529
27.693       321200       2.52483
27.7016       321300       2.52437
27.7103       321400       2.52391
27.7189       321500       2.52345
27.7275       321600       2.523
27.7361       321700       2.52254
27.7448       321800       2.52208
27.7534       321900       2.52162
27.762       322000       2.52116
27.7706       322100       2.52071
27.7792       322200       2.52025
27.7879       322300       2.51979
27.7965       322400       2.51934
27.8051       322500       2.51888
27.8137       322600       2.51842
27.8223       322700       2.51797
27.831       322800       2.51751
27.8396       322900       2.51706
27.8482       323000       2.5166
27.8568       323100       2.51615
27.8655       323200       2.5157
27.8741       323300       2.51524
27.8827       323400       2.51479
27.8913       323500       2.51434
27.8999       323600       2.51388
27.9086       323700       2.51343
27.9172       323800       2.51298
27.9258       323900       2.51253
27.9344       324000       2.51208
27.9431       324100       2.51162
27.9517       324200       2.51117
27.9603       324300       2.51072
27.9689       324400       2.51027
27.9775       324500       2.50982
27.9862       324600       2.50937
27.9948       324700       2.50892
28.0034       324800       2.50847
28.012       324900       2.50803
28.0206       325000       2.50758
28.0293       325100       2.50713
28.0379       325200       2.50668
28.0465       325300       2.50623
28.0551       325400       2.50579
28.0638       325500       2.50534
28.0724       325600       2.50489
28.081       325700       2.50445
28.0896       325800       2.504
28.0982       325900       2.50355
28.1069       326000       2.50311
28.1155       326100       2.50266
28.1241       326200       2.50222
28.1327       326300       2.50177
28.1414       326400       2.50133
28.15       326500       2.50089
28.1586       326600       2.50044
28.1672       326700       2.5
28.1758       326800       2.49956
28.1845       326900       2.49911
28.1931       327000       2.49867
28.2017       327100       2.49823
28.2103       327200       2.49779
28.2189       327300       2.49734
28.2276       327400       2.4969
28.2362       327500       2.49646
28.2448       327600       2.49602
28.2534       327700       2.49558
28.2621       327800       2.49514
28.2707       327900       2.4947
28.2793       328000       2.49426
28.2879       328100       2.49382
28.2965       328200       2.49338
28.3052       328300       2.49294
28.3138       328400       2.49251
28.3224       328500       2.49207
28.331       328600       2.49163
28.3397       328700       2.49119
28.3483       328800       2.49075
28.3569       328900       2.49032
28.3655       329000       2.48988
28.3741       329100       2.48944
28.3828       329200       2.48901
28.3914       329300       2.48857
28.4       329400       2.48814
28.4086       329500       2.4877
28.4172       329600       2.48727
28.4259       329700       2.48683
28.4345       329800       2.4864
28.4431       329900       2.48596
28.4517       330000       2.48553
28.4604       330100       2.4851
28.469       330200       2.48466
28.4776       330300       2.48423
28.4862       330400       2.4838
28.4948       330500       2.48337
28.5035       330600       2.48293
28.5121       330700       2.4825
28.5207       330800       2.48207
28.5293       330900       2.48164
28.538       331000       2.48121
28.5466       331100       2.48078
28.5552       331200       2.48035
28.5638       331300       2.47992
28.5724       331400       2.47949
28.5811       331500       2.47906
28.5897       331600       2.47863
28.5983       331700       2.4782
28.6069       331800       2.47777
28.6155       331900       2.47734
28.6242       332000       2.47691
28.6328       332100       2.47649
28.6414       332200       2.47606
28.65       332300       2.47563
28.6587       332400       2.4752
28.6673       332500       2.47478
28.6759       332600       2.47435
28.6845       332700       2.47393
28.6931       332800       2.4735
28.7018       332900       2.47307
28.7104       333000       2.47265
28.719       333100       2.47222
28.7276       333200       2.4718
28.7363       333300       2.47138
28.7449       333400       2.47095
28.7535       333500       2.47053
28.7621       333600       2.4701
28.7707       333700       2.46968
28.7794       333800       2.46926
28.788       333900       2.46883
28.7966       334000       2.46841
28.8052       334100       2.46799
28.8138       334200       2.46757
28.8225       334300       2.46715
28.8311       334400       2.46673
28.8397       334500       2.4663
28.8483       334600       2.46588
28.857       334700       2.46546
28.8656       334800       2.46504
28.8742       334900       2.46462
28.8828       335000       2.4642
28.8914       335100       2.46378
28.9001       335200       2.46336
28.9087       335300       2.46295
28.9173       335400       2.46253
28.9259       335500       2.46211
28.9346       335600       2.46169
28.9432       335700       2.46127
28.9518       335800       2.46086
28.9604       335900       2.46044
28.969       336000       2.46002
28.9777       336100       2.45961
28.9863       336200       2.45919
28.9949       336300       2.45877
29.0035       336400       2.45836
29.0121       336500       2.45794
29.0208       336600       2.45753
29.0294       336700       2.45711
29.038       336800       2.4567
29.0466       336900       2.45628
29.0553       337000       2.45587
29.0639       337100       2.45545
29.0725       337200       2.45504
29.0811       337300       2.45463
29.0897       337400       2.45421
29.0984       337500       2.4538
29.107       337600       2.45339
29.1156       337700       2.45298
29.1242       337800       2.45256
29.1329       337900       2.45215
29.1415       338000       2.45174
29.1501       338100       2.45133
29.1587       338200       2.45092
29.1673       338300       2.45051
29.176       338400       2.4501
29.1846       338500       2.44969
29.1932       338600       2.44928
29.2018       338700       2.44887
29.2104       338800       2.44846
29.2191       338900       2.44805
29.2277       339000       2.44764
29.2363       339100       2.44723
29.2449       339200       2.44683
29.2536       339300       2.44642
29.2622       339400       2.44601
29.2708       339500       2.4456
29.2794       339600       2.4452
29.288       339700       2.44479
29.2967       339800       2.44438
29.3053       339900       2.44398
29.3139       340000       2.44357
29.3225       340100       2.44316
29.3312       340200       2.44276
29.3398       340300       2.44235
29.3484       340400       2.44195
29.357       340500       2.44154
29.3656       340600       2.44114
29.3743       340700       2.44073
29.3829       340800       2.44033
29.3915       340900       2.43993
29.4001       341000       2.43952
29.4087       341100       2.43912
29.4174       341200       2.43872
29.426       341300       2.43832
29.4346       341400       2.43791
29.4432       341500       2.43751
29.4519       341600       2.43711
29.4605       341700       2.43671
29.4691       341800       2.43631
29.4777       341900       2.43591
29.4863       342000       2.4355
29.495       342100       2.4351
29.5036       342200       2.4347
29.5122       342300       2.4343
29.5208       342400       2.4339
29.5295       342500       2.4335
29.5381       342600       2.43311
29.5467       342700       2.43271
29.5553       342800       2.43231
29.5639       342900       2.43191
29.5726       343000       2.43151
29.5812       343100       2.43111
29.5898       343200       2.43072
29.5984       343300       2.43032
29.607       343400       2.42992
29.6157       343500       2.42953
29.6243       343600       2.42913
29.6329       343700       2.42873
29.6415       343800       2.42834
29.6502       343900       2.42794
29.6588       344000       2.42754
29.6674       344100       2.42715
29.676       344200       2.42675
29.6846       344300       2.42636
29.6933       344400       2.42597
29.7019       344500       2.42557
29.7105       344600       2.42518
29.7191       344700       2.42478
29.7278       344800       2.42439
29.7364       344900       2.424
29.745       345000       2.4236
29.7536       345100       2.42321
29.7622       345200       2.42282
29.7709       345300       2.42243
29.7795       345400       2.42203
29.7881       345500       2.42164
29.7967       345600       2.42125
29.8053       345700       2.42086
29.814       345800       2.42047
29.8226       345900       2.42008
29.8312       346000       2.41969
29.8398       346100       2.4193
29.8485       346200       2.41891
29.8571       346300       2.41852
29.8657       346400       2.41813
29.8743       346500       2.41774
29.8829       346600       2.41735
29.8916       346700       2.41696
29.9002       346800       2.41658
29.9088       346900       2.41619
29.9174       347000       2.4158
29.9261       347100       2.41541
29.9347       347200       2.41502
29.9433       347300       2.41464
29.9519       347400       2.41425
29.9605       347500       2.41386
29.9692       347600       2.41348
29.9778       347700       2.41309
29.9864       347800       2.41271
29.995       347900       2.41232
30.0036       348000       2.41194
30.0123       348100       2.41155
30.0209       348200       2.41117
30.0295       348300       2.41078
30.0381       348400       2.4104
30.0468       348500       2.41001
30.0554       348600       2.40963
30.064       348700       2.40925
30.0726       348800       2.40886
30.0812       348900       2.40848
30.0899       349000       2.4081
30.0985       349100       2.40771
30.1071       349200       2.40733
30.1157       349300       2.40695
30.1244       349400       2.40657
30.133       349500       2.40619
30.1416       349600       2.4058
30.1502       349700       2.40542
30.1588       349800       2.40504
30.1675       349900       2.40466
30.1761       350000       2.40428
30.1847       350100       2.4039
30.1933       350200       2.40352
30.2019       350300       2.40314
30.2106       350400       2.40276
30.2192       350500       2.40238
30.2278       350600       2.40201
30.2364       350700       2.40163
30.2451       350800       2.40125
30.2537       350900       2.40087
30.2623       351000       2.40049
30.2709       351100       2.40012
30.2795       351200       2.39974
30.2882       351300       2.39936
30.2968       351400       2.39898
30.3054       351500       2.39861
30.314       351600       2.39823
30.3227       351700       2.39785
30.3313       351800       2.39748
30.3399       351900       2.3971
30.3485       352000       2.39673
30.3571       352100       2.39635
30.3658       352200       2.39598
30.3744       352300       2.3956
30.383       352400       2.39523
30.3916       352500       2.39485
30.4002       352600       2.39448
30.4089       352700       2.39411
30.4175       352800       2.39373
30.4261       352900       2.39336
30.4347       353000       2.39299
30.4434       353100       2.39262
30.452       353200       2.39224
30.4606       353300       2.39187
30.4692       353400       2.3915
30.4778       353500       2.39113
30.4865       353600       2.39076
30.4951       353700       2.39038
30.5037       353800       2.39001
30.5123       353900       2.38964
30.521       354000       2.38927
30.5296       354100       2.3889
30.5382       354200       2.38853
30.5468       354300       2.38816
30.5554       354400       2.38779
30.5641       354500       2.38742
30.5727       354600       2.38705
30.5813       354700       2.38669
30.5899       354800       2.38632
30.5985       354900       2.38595
30.6072       355000       2.38558
30.6158       355100       2.38521
30.6244       355200       2.38484
30.633       355300       2.38448
30.6417       355400       2.38411
30.6503       355500       2.38374
30.6589       355600       2.38338
30.6675       355700       2.38301
30.6761       355800       2.38264
30.6848       355900       2.38228
30.6934       356000       2.38191
30.702       356100       2.38155
30.7106       356200       2.38118
30.7193       356300       2.38082
30.7279       356400       2.38045
30.7365       356500       2.38009
30.7451       356600       2.37972
30.7537       356700       2.37936
30.7624       356800       2.37899
30.771       356900       2.37863
30.7796       357000       2.37827
30.7882       357100       2.3779
30.7968       357200       2.37754
30.8055       357300       2.37718
30.8141       357400       2.37682
30.8227       357500       2.37645
30.8313       357600       2.37609
30.84       357700       2.37573
30.8486       357800       2.37537
30.8572       357900       2.37501
30.8658       358000       2.37465
30.8744       358100       2.37429
30.8831       358200       2.37393
30.8917       358300       2.37357
30.9003       358400       2.37321
30.9089       358500       2.37285
30.9176       358600       2.37249
30.9262       358700       2.37213
30.9348       358800       2.37177
30.9434       358900       2.37141
30.952       359000       2.37105
30.9607       359100       2.37069
30.9693       359200       2.37033
30.9779       359300       2.36998
30.9865       359400       2.36962
30.9951       359500       2.36926
31.0038       359600       2.3689
31.0124       359700       2.36855
31.021       359800       2.36819
31.0296       359900       2.36783
31.0383       360000       2.36748
31.0469       360100       2.36712
31.0555       360200       2.36676
31.0641       360300       2.36641
31.0727       360400       2.36605
31.0814       360500       2.3657
31.09       360600       2.36534
31.0986       360700       2.36499
31.1072       360800       2.36463
31.1159       360900       2.36428
31.1245       361000       2.36393
31.1331       361100       2.36357
31.1417       361200       2.36322
31.1503       361300       2.36286
31.159       361400       2.36251
31.1676       361500       2.36216
31.1762       361600       2.36181
31.1848       361700       2.36145
31.1934       361800       2.3611
31.2021       361900       2.36075
31.2107       362000       2.3604
31.2193       362100       2.36005
31.2279       362200       2.35969
31.2366       362300       2.35934
31.2452       362400       2.35899
31.2538       362500       2.35864
31.2624       362600       2.35829
31.271       362700       2.35794
31.2797       362800       2.35759
31.2883       362900       2.35724
31.2969       363000       2.35689
31.3055       363100       2.35654
31.3142       363200       2.35619
31.3228       363300       2.35584
31.3314       363400       2.3555
31.34       363500       2.35515
31.3486       363600       2.3548
31.3573       363700       2.35445
31.3659       363800       2.3541
31.3745       363900       2.35376
31.3831       364000       2.35341
31.3917       364100       2.35306
31.4004       364200       2.35272
31.409       364300       2.35237
31.4176       364400       2.35202
31.4262       364500       2.35168
31.4349       364600       2.35133
31.4435       364700       2.35098
31.4521       364800       2.35064
31.4607       364900       2.35029
31.4693       365000       2.34995
31.478       365100       2.3496
31.4866       365200       2.34926
31.4952       365300       2.34892
31.5038       365400       2.34857
31.5125       365500       2.34823
31.5211       365600       2.34788
31.5297       365700       2.34754
31.5383       365800       2.3472
31.5469       365900       2.34685
31.5556       366000       2.34651
31.5642       366100       2.34617
31.5728       366200       2.34583
31.5814       366300       2.34548
31.59       366400       2.34514
31.5987       366500       2.3448
31.6073       366600       2.34446
31.6159       366700       2.34412
31.6245       366800       2.34378
31.6332       366900       2.34344
31.6418       367000       2.3431
31.6504       367100       2.34275
31.659       367200       2.34241
31.6676       367300       2.34207
31.6763       367400       2.34173
31.6849       367500       2.3414
31.6935       367600       2.34106
31.7021       367700       2.34072
31.7108       367800       2.34038
31.7194       367900       2.34004
31.728       368000       2.3397
31.7366       368100       2.33936
31.7452       368200       2.33903
31.7539       368300       2.33869
31.7625       368400       2.33835
31.7711       368500       2.33801
31.7797       368600       2.33768
31.7883       368700       2.33734
31.797       368800       2.337
31.8056       368900       2.33667
31.8142       369000       2.33633
31.8228       369100       2.33599
31.8315       369200       2.33566
31.8401       369300       2.33532
31.8487       369400       2.33499
31.8573       369500       2.33465
31.8659       369600       2.33432
31.8746       369700       2.33398
31.8832       369800       2.33365
31.8918       369900       2.33331
31.9004       370000       2.33298
31.9091       370100       2.33264
31.9177       370200       2.33231
31.9263       370300       2.33198
31.9349       370400       2.33164
31.9435       370500       2.33131
31.9522       370600       2.33098
31.9608       370700       2.33065
31.9694       370800       2.33031
31.978       370900       2.32998
31.9866       371000       2.32965
31.9953       371100       2.32932
32.0039       371200       2.32899
32.0125       371300       2.32866
32.0211       371400       2.32832
32.0298       371500       2.32799
32.0384       371600       2.32766
32.047       371700       2.32733
32.0556       371800       2.327
32.0642       371900       2.32667
32.0729       372000       2.32634
32.0815       372100       2.32601
32.0901       372200       2.32568
32.0987       372300       2.32535
32.1074       372400       2.32503
32.116       372500       2.3247
32.1246       372600       2.32437
32.1332       372700       2.32404
32.1418       372800       2.32371
32.1505       372900       2.32338
32.1591       373000       2.32306
32.1677       373100       2.32273
32.1763       373200       2.3224
32.1849       373300       2.32207
32.1936       373400       2.32175
32.2022       373500       2.32142
32.2108       373600       2.32109
32.2194       373700       2.32077
32.2281       373800       2.32044
32.2367       373900       2.32012
32.2453       374000       2.31979
32.2539       374100       2.31947
32.2625       374200       2.31914
32.2712       374300       2.31881
32.2798       374400       2.31849
32.2884       374500       2.31817
32.297       374600       2.31784
32.3057       374700       2.31752
32.3143       374800       2.31719
32.3229       374900       2.31687
32.3315       375000       2.31655
32.3401       375100       2.31622
32.3488       375200       2.3159
32.3574       375300       2.31558
32.366       375400       2.31525
32.3746       375500       2.31493
32.3832       375600       2.31461
32.3919       375700       2.31429
32.4005       375800       2.31397
32.4091       375900       2.31364
32.4177       376000       2.31332
32.4264       376100       2.313
32.435       376200       2.31268
32.4436       376300       2.31236
32.4522       376400       2.31204
32.4608       376500       2.31172
32.4695       376600       2.3114
32.4781       376700       2.31108
32.4867       376800       2.31076
32.4953       376900       2.31044
32.504       377000       2.31012
32.5126       377100       2.3098
32.5212       377200       2.30948
32.5298       377300       2.30916
32.5384       377400       2.30884
32.5471       377500       2.30853
32.5557       377600       2.30821
32.5643       377700       2.30789
32.5729       377800       2.30757
32.5815       377900       2.30725
32.5902       378000       2.30694
32.5988       378100       2.30662
32.6074       378200       2.3063
32.616       378300       2.30599
32.6247       378400       2.30567
32.6333       378500       2.30535
32.6419       378600       2.30504
32.6505       378700       2.30472
32.6591       378800       2.30441
32.6678       378900       2.30409
32.6764       379000       2.30377
32.685       379100       2.30346
32.6936       379200       2.30314
32.7023       379300       2.30283
32.7109       379400       2.30252
32.7195       379500       2.3022
32.7281       379600       2.30189
32.7367       379700       2.30157
32.7454       379800       2.30126
32.754       379900       2.30095
32.7626       380000       2.30063
32.7712       380100       2.30032
32.7798       380200       2.30001
32.7885       380300       2.29969
32.7971       380400       2.29938
32.8057       380500       2.29907
32.8143       380600       2.29876
32.823       380700       2.29845
32.8316       380800       2.29813
32.8402       380900       2.29782
32.8488       381000       2.29751
32.8574       381100       2.2972
32.8661       381200       2.29689
32.8747       381300       2.29658
32.8833       381400       2.29627
32.8919       381500       2.29596
32.9006       381600       2.29565
32.9092       381700       2.29534
32.9178       381800       2.29503
32.9264       381900       2.29472
32.935       382000       2.29441
32.9437       382100       2.2941
32.9523       382200       2.29379
32.9609       382300       2.29348
32.9695       382400       2.29317
32.9781       382500       2.29287
32.9868       382600       2.29256
32.9954       382700       2.29225
33.004       382800       2.29194
33.0126       382900       2.29163
33.0213       383000       2.29133
33.0299       383100       2.29102
33.0385       383200       2.29071
33.0471       383300       2.29041
33.0557       383400       2.2901
33.0644       383500       2.28979
33.073       383600       2.28949
33.0816       383700       2.28918
33.0902       383800       2.28887
33.0989       383900       2.28857
33.1075       384000       2.28826
33.1161       384100       2.28796
33.1247       384200       2.28765
33.1333       384300       2.28735
33.142       384400       2.28704
33.1506       384500       2.28674
33.1592       384600       2.28644
33.1678       384700       2.28613
33.1764       384800       2.28583
33.1851       384900       2.28552
33.1937       385000       2.28522
33.2023       385100       2.28492
33.2109       385200       2.28461
33.2196       385300       2.28431
33.2282       385400       2.28401
33.2368       385500       2.28371
33.2454       385600       2.2834
33.254       385700       2.2831
33.2627       385800       2.2828
33.2713       385900       2.2825
33.2799       386000       2.2822
33.2885       386100       2.2819
33.2972       386200       2.28159
33.3058       386300       2.28129
33.3144       386400       2.28099
33.323       386500       2.28069
33.3316       386600       2.28039
33.3403       386700       2.28009
33.3489       386800       2.27979
33.3575       386900       2.27949
33.3661       387000       2.27919
33.3747       387100       2.27889
33.3834       387200       2.27859
33.392       387300       2.2783
33.4006       387400       2.278
33.4092       387500       2.2777
33.4179       387600       2.2774
33.4265       387700       2.2771
33.4351       387800       2.2768
33.4437       387900       2.27651
33.4523       388000       2.27621
33.461       388100       2.27591
33.4696       388200       2.27561
33.4782       388300       2.27532
33.4868       388400       2.27502
33.4955       388500       2.27472
33.5041       388600       2.27443
33.5127       388700       2.27413
33.5213       388800       2.27383
33.5299       388900       2.27354
33.5386       389000       2.27324
33.5472       389100       2.27295
33.5558       389200       2.27265
33.5644       389300       2.27236
33.573       389400       2.27206
33.5817       389500       2.27177
33.5903       389600       2.27147
33.5989       389700       2.27118
33.6075       389800       2.27088
33.6162       389900       2.27059
33.6248       390000       2.27029
33.6334       390100       2.27
33.642       390200       2.26971
33.6506       390300       2.26941
33.6593       390400       2.26912
33.6679       390500       2.26883
33.6765       390600       2.26853
33.6851       390700       2.26824
33.6938       390800       2.26795
33.7024       390900       2.26766
33.711       391000       2.26737
33.7196       391100       2.26707
33.7282       391200       2.26678
33.7369       391300       2.26649
33.7455       391400       2.2662
33.7541       391500       2.26591
33.7627       391600       2.26562
33.7713       391700       2.26533
33.78       391800       2.26504
33.7886       391900       2.26475
33.7972       392000       2.26446
33.8058       392100       2.26417
33.8145       392200       2.26388
33.8231       392300       2.26359
33.8317       392400       2.2633
33.8403       392500       2.26301
33.8489       392600       2.26272
33.8576       392700       2.26243
33.8662       392800       2.26214
33.8748       392900       2.26185
33.8834       393000       2.26156
33.8921       393100       2.26128
33.9007       393200       2.26099
33.9093       393300       2.2607
33.9179       393400       2.26041
33.9265       393500       2.26013
33.9352       393600       2.25984
33.9438       393700       2.25955
33.9524       393800       2.25926
33.961       393900       2.25898
33.9696       394000       2.25869
33.9783       394100       2.25841
33.9869       394200       2.25812
33.9955       394300       2.25783
34.0041       394400       2.25755
34.0128       394500       2.25726
34.0214       394600       2.25698
34.03       394700       2.25669
34.0386       394800       2.25641
34.0472       394900       2.25612
34.0559       395000       2.25584
34.0645       395100       2.25555
34.0731       395200       2.25527
34.0817       395300       2.25498
34.0904       395400       2.2547
34.099       395500       2.25442
34.1076       395600       2.25413
34.1162       395700       2.25385
34.1248       395800       2.25357
34.1335       395900       2.25328
34.1421       396000       2.253
34.1507       396100       2.25272
34.1593       396200       2.25243
34.1679       396300       2.25215
34.1766       396400       2.25187
34.1852       396500       2.25159
34.1938       396600       2.25131
34.2024       396700       2.25103
34.2111       396800       2.25074
34.2197       396900       2.25046
34.2283       397000       2.25018
34.2369       397100       2.2499
34.2455       397200       2.24962
34.2542       397300       2.24934
34.2628       397400       2.24906
34.2714       397500       2.24878
34.28       397600       2.2485
34.2887       397700       2.24822
34.2973       397800       2.24794
34.3059       397900       2.24766
34.3145       398000       2.24738
34.3231       398100       2.2471
34.3318       398200       2.24682
34.3404       398300       2.24654
34.349       398400       2.24627
34.3576       398500       2.24599
34.3662       398600       2.24571
34.3749       398700       2.24543
34.3835       398800       2.24515
34.3921       398900       2.24488
34.4007       399000       2.2446
34.4094       399100       2.24432
34.418       399200       2.24404
34.4266       399300       2.24377
34.4352       399400       2.24349
34.4438       399500       2.24321
34.4525       399600       2.24294
34.4611       399700       2.24266
34.4697       399800       2.24238
34.4783       399900       2.24211
34.487       400000       2.24183
